TimeStamp,Delta_TP9,Delta_AF7,Delta_AF8,Delta_TP10,Theta_TP9,Theta_AF7,Theta_AF8,Theta_TP10,Alpha_TP9,Alpha_AF7,Alpha_AF8,Alpha_TP10,Beta_TP9,Beta_AF7,Beta_AF8,Beta_TP10,Gamma_TP9,Gamma_AF7,Gamma_AF8,Gamma_TP10,RAW_TP9,RAW_AF7,RAW_AF8,RAW_TP10,AUX_RIGHT,Mellow,Concentration,Accelerometer_X,Accelerometer_Y,Accelerometer_Z,Gyro_X,Gyro_Y,Gyro_Z,PPG_Ambient,PPG_IR,PPG_Red,Heart_Rate,HeadBandOn,HSI_TP9,HSI_AF7,HSI_AF8,HSI_TP10,Battery,Elements,TimeDifference
2023-11-16 12:17:14.810,0.95685476,0.7027499,1.0028973,-3.9846292,0.62915736,0.41883418,0.5121085,-3.728819,0.660911,0.55021197,0.6044624,-3.371572,0.27426437,0.5202778,0.37016928,-3.306395,0.24558893,0.14879398,0.06014593,-3.2321553,755.4945,813.91943,800.2198,1624.6154,747.8388,0.0,0.0,-0.12225341796875,0.00787353515625,1.0010986328125,3.132781982421875,-5.854339599609375,0.11962890625,44285274.72527473,118796776.55677655,87402051.28205128,79.78668,1.0,2.0,1.0,1.0,4.0,20.0,,0 days 00:00:00.043000
2023-11-16 12:17:14.811,0.95685476,0.7027499,1.0028973,-3.9846292,0.62915736,0.41883418,0.5121085,-3.728819,0.660911,0.55021197,0.6044624,-3.371572,0.27426437,0.5202778,0.37016928,-3.306395,0.24558893,0.14879398,0.06014593,-3.2321553,773.6264,815.12823,810.293,1624.6154,774.0293,0.0,0.0,-0.12225341796875,0.00787353515625,1.0010986328125,3.132781982421875,-5.854339599609375,0.11962890625,44285274.72527473,118796776.55677655,87402051.28205128,79.78668,1.0,2.0,1.0,1.0,4.0,20.0,,0 days 00:00:00.001000
2023-11-16 12:17:14.812,0.95685476,0.7027499,1.0028973,-3.9846292,0.62915736,0.41883418,0.5121085,-3.728819,0.660911,0.55021197,0.6044624,-3.371572,0.27426437,0.5202778,0.37016928,-3.306395,0.24558893,0.14879398,0.06014593,-3.2321553,783.69965,812.3077,814.7253,1624.6154,770.80585,0.0,0.0,-0.12225341796875,0.00787353515625,1.0010986328125,3.132781982421875,-5.854339599609375,0.11962890625,44285274.72527473,118796776.55677655,87402051.28205128,79.78668,1.0,2.0,1.0,1.0,4.0,20.0,,0 days 00:00:00.001000
2023-11-16 12:17:14.812,0.95685476,0.7027499,1.0028973,-3.9846292,0.62915736,0.41883418,0.5121085,-3.728819,0.660911,0.55021197,0.6044624,-3.371572,0.27426437,0.5202778,0.37016928,-3.306395,0.24558893,0.14879398,0.06014593,-3.2321553,769.59705,810.293,805.8608,1624.6154,749.0476,0.0,0.0,-0.12225341796875,0.00787353515625,1.0010986328125,3.132781982421875,-5.854339599609375,0.11962890625,44285274.72527473,118796776.55677655,87402051.28205128,79.78668,1.0,2.0,1.0,1.0,4.0,20.0,,0 days 00:00:00
2023-11-16 12:17:14.813,0.95685476,0.7027499,1.0028973,-3.9846292,0.62915736,0.41883418,0.5121085,-3.728819,0.660911,0.55021197,0.6044624,-3.371572,0.27426437,0.5202778,0.37016928,-3.306395,0.24558893,0.14879398,0.06014593,-3.2321553,759.5238,807.47253,798.60803,1624.6154,763.5531,0.0,0.0,-0.12225341796875,0.00787353515625,1.0010986328125,3.132781982421875,-5.854339599609375,0.11962890625,44285274.72527473,118796776.55677655,87402051.28205128,79.78668,1.0,2.0,1.0,1.0,4.0,20.0,,0 days 00:00:00.001000
2023-11-16 12:17:14.813,0.95685476,0.7027499,1.0028973,-3.9846292,0.62915736,0.41883418,0.5121085,-3.728819,0.660911,0.55021197,0.6044624,-3.371572,0.27426437,0.5202778,0.37016928,-3.306395,0.24558893,0.14879398,0.06014593,-3.2321553,753.8828,800.2198,791.75824,1624.6154,817.9487,0.0,0.0,-0.12225341796875,0.00787353515625,1.0010986328125,3.132781982421875,-5.854339599609375,0.11962890625,44285274.72527473,118796776.55677655,87402051.28205128,79.78668,1.0,2.0,1.0,1.0,4.0,20.0,,0 days 00:00:00
2023-11-16 12:17:14.814,0.95685476,0.7027499,1.0028973,-3.9846292,0.62915736,0.41883418,0.5121085,-3.728819,0.660911,0.55021197,0.6044624,-3.371572,0.27426437,0.5202778,0.37016928,-3.306395,0.24558893,0.14879398,0.06014593,-3.2321553,770.0,809.0842,803.8461,1624.6154,1033.5165,0.0,0.0,-0.12225341796875,0.00787353515625,1.0010986328125,3.132781982421875,-5.854339599609375,0.11962890625,44285274.72527473,118796776.55677655,87402051.28205128,79.78668,1.0,2.0,1.0,1.0,4.0,20.0,,0 days 00:00:00.001000
2023-11-16 12:17:14.815,0.95685476,0.7027499,1.0028973,-3.9846292,0.62915736,0.41883418,0.5121085,-3.728819,0.660911,0.55021197,0.6044624,-3.371572,0.27426437,0.5202778,0.37016928,-3.306395,0.24558893,0.14879398,0.06014593,-3.2321553,791.75824,814.7253,813.1135,1624.6154,979.92676,0.0,0.0,-0.12225341796875,0.00787353515625,1.0010986328125,3.132781982421875,-5.854339599609375,0.11962890625,44285274.72527473,118796776.55677655,87402051.28205128,79.78668,1.0,2.0,1.0,1.0,4.0,20.0,,0 days 00:00:00.001000
2023-11-16 12:17:14.816,0.95685476,0.7027499,1.0028973,-3.9846292,0.62915736,0.41883418,0.5121085,-3.728819,0.660911,0.55021197,0.6044624,-3.371572,0.27426437,0.5202778,0.37016928,-3.306395,0.24558893,0.14879398,0.06014593,-3.2321553,786.1172,814.7253,809.4872,1624.6154,815.12823,0.0,0.0,-0.12225341796875,0.00787353515625,1.0010986328125,3.132781982421875,-5.854339599609375,0.11962890625,44285274.72527473,118796776.55677655,87402051.28205128,79.78668,1.0,2.0,1.0,1.0,4.0,20.0,,0 days 00:00:00.001000
2023-11-16 12:17:14.816,0.95685476,0.7027499,1.0028973,-3.9846292,0.62915736,0.41883418,0.5121085,-3.728819,0.660911,0.55021197,0.6044624,-3.371572,0.27426437,0.5202778,0.37016928,-3.306395,0.24558893,0.14879398,0.06014593,-3.2321553,771.2088,813.91943,810.293,1624.6154,914.2491,0.0,0.0,-0.12225341796875,0.00787353515625,1.0010986328125,3.132781982421875,-5.854339599609375,0.11962890625,44285274.72527473,118796776.55677655,87402051.28205128,79.78668,1.0,2.0,1.0,1.0,4.0,20.0,,0 days 00:00:00
2023-11-16 12:17:14.817,0.95685476,0.7027499,1.0028973,-3.9846292,0.62915736,0.41883418,0.5121085,-3.728819,0.660911,0.55021197,0.6044624,-3.371572,0.27426437,0.5202778,0.37016928,-3.306395,0.24558893,0.14879398,0.06014593,-3.2321553,770.40295,807.8755,809.89014,1624.6154,1074.6154,0.0,0.0,-0.12225341796875,0.00787353515625,1.0010986328125,3.132781982421875,-5.854339599609375,0.11962890625,44285274.72527473,118796776.55677655,87402051.28205128,79.78668,1.0,2.0,1.0,1.0,4.0,20.0,,0 days 00:00:00.001000
2023-11-16 12:17:14.817,0.95685476,0.7027499,1.0028973,-3.9846292,0.62915736,0.41883418,0.5121085,-3.728819,0.660911,0.55021197,0.6044624,-3.371572,0.27426437,0.5202778,0.37016928,-3.306395,0.24558893,0.14879398,0.06014593,-3.2321553,779.2674,815.5311,806.6667,1624.6154,974.2857,0.0,0.0,-0.12225341796875,0.00787353515625,1.0010986328125,3.132781982421875,-5.854339599609375,0.11962890625,44285274.72527473,118796776.55677655,87402051.28205128,79.78668,1.0,2.0,1.0,1.0,4.0,20.0,,0 days 00:00:00
2023-11-16 12:17:14.852,0.95685476,0.7027499,1.0028973,-3.9846292,0.62915736,0.41883418,0.5121085,-3.728819,0.660911,0.55021197,0.6044624,-3.371572,0.27426437,0.5202778,0.37016928,-3.306395,0.24558893,0.14879398,0.06014593,-3.2321553,776.4469,821.1722,812.3077,1624.6154,796.99634,0.0,0.0,-0.12066650390625,0.0076904296875,1.001708984375,3.117828369140625,-5.9515380859375,-0.695343017578125,44285274.72527473,118796776.55677655,87402051.28205128,79.78668,1.0,2.0,1.0,1.0,4.0,20.0,,0 days 00:00:00.035000
2023-11-16 12:17:14.853,0.95685476,0.7027499,1.0028973,-3.9846292,0.62915736,0.41883418,0.5121085,-3.728819,0.660911,0.55021197,0.6044624,-3.371572,0.27426437,0.5202778,0.37016928,-3.306395,0.24558893,0.14879398,0.06014593,-3.2321553,773.6264,809.89014,811.9048,1624.6154,779.67035,0.0,0.0,-0.12066650390625,0.0076904296875,1.001708984375,3.117828369140625,-5.9515380859375,-0.695343017578125,44285274.72527473,118796776.55677655,87402051.28205128,79.78668,1.0,2.0,1.0,1.0,4.0,20.0,,0 days 00:00:00.001000
2023-11-16 12:17:14.853,0.95685476,0.7027499,1.0028973,-3.9846292,0.62915736,0.41883418,0.5121085,-3.728819,0.660911,0.55021197,0.6044624,-3.371572,0.27426437,0.5202778,0.37016928,-3.306395,0.24558893,0.14879398,0.06014593,-3.2321553,773.22345,810.293,804.65204,1624.6154,813.1135,0.0,0.0,-0.12066650390625,0.0076904296875,1.001708984375,3.117828369140625,-5.9515380859375,-0.695343017578125,44285274.72527473,118796776.55677655,87402051.28205128,79.78668,1.0,2.0,1.0,1.0,4.0,20.0,,0 days 00:00:00
2023-11-16 12:17:14.854,0.95685476,0.7027499,1.0028973,-3.9846292,0.62915736,0.41883418,0.5121085,-3.728819,0.660911,0.55021197,0.6044624,-3.371572,0.27426437,0.5202778,0.37016928,-3.306395,0.24558893,0.14879398,0.06014593,-3.2321553,770.0,812.71063,802.23444,1624.6154,764.7619,0.0,0.0,-0.12066650390625,0.0076904296875,1.001708984375,3.117828369140625,-5.9515380859375,-0.695343017578125,44285274.72527473,118796776.55677655,87402051.28205128,79.78668,1.0,2.0,1.0,1.0,4.0,20.0,,0 days 00:00:00.001000
2023-11-16 12:17:14.854,0.95685476,0.7027499,1.0028973,-3.9846292,0.62915736,0.41883418,0.5121085,-3.728819,0.660911,0.55021197,0.6044624,-3.371572,0.27426437,0.5202778,0.37016928,-3.306395,0.24558893,0.14879398,0.06014593,-3.2321553,764.35895,808.2784,806.6667,1624.6154,778.46155,0.0,0.0,-0.12066650390625,0.0076904296875,1.001708984375,3.117828369140625,-5.9515380859375,-0.695343017578125,44285274.72527473,118796776.55677655,87402051.28205128,79.78668,1.0,2.0,1.0,1.0,4.0,20.0,,0 days 00:00:00
2023-11-16 12:17:14.854,0.95685476,0.7027499,1.0028973,-3.9846292,0.62915736,0.41883418,0.5121085,-3.728819,0.660911,0.55021197,0.6044624,-3.371572,0.27426437,0.5202778,0.37016928,-3.306395,0.24558893,0.14879398,0.06014593,-3.2321553,781.685,809.0842,813.1135,1624.2124,875.56775,0.0,0.0,-0.12066650390625,0.0076904296875,1.001708984375,3.117828369140625,-5.9515380859375,-0.695343017578125,44285274.72527473,118796776.55677655,87402051.28205128,79.78668,1.0,2.0,1.0,1.0,4.0,20.0,,0 days 00:00:00
2023-11-16 12:17:14.854,0.95685476,0.7027499,1.0028973,-3.9846292,0.62915736,0.41883418,0.5121085,-3.728819,0.660911,0.55021197,0.6044624,-3.371572,0.27426437,0.5202778,0.37016928,-3.306395,0.24558893,0.14879398,0.06014593,-3.2321553,790.54944,807.8755,809.4872,1624.6154,880.80585,0.0,0.0,-0.12066650390625,0.0076904296875,1.001708984375,3.117828369140625,-5.9515380859375,-0.695343017578125,44285274.72527473,118796776.55677655,87402051.28205128,79.78668,1.0,2.0,1.0,1.0,4.0,20.0,,0 days 00:00:00
2023-11-16 12:17:14.855,0.95685476,0.7085853,1.0030789,-3.9846292,0.62915736,0.41965374,0.52111435,-3.728819,0.660911,0.55021197,0.6044624,-3.371572,0.27426437,0.52666956,0.3829949,-3.306395,0.24558893,0.15325317,0.071987525,-3.2321553,778.0586,810.696,809.0842,1625.0183,831.2454,0.0,0.0,-0.12066650390625,0.0076904296875,1.001708984375,3.117828369140625,-5.9515380859375,-0.695343017578125,44285274.72527473,118796776.55677655,87402051.28205128,79.78668,1.0,2.0,1.0,1.0,4.0,20.0,,0 days 00:00:00.001000
2023-11-16 12:17:14.856,0.95685476,0.7085853,1.0030789,-3.9846292,0.62915736,0.41965374,0.52111435,-3.728819,0.660911,0.55021197,0.6044624,-3.371572,0.27426437,0.52666956,0.3829949,-3.306395,0.24558893,0.15325317,0.071987525,-3.2321553,784.90845,811.50183,817.1429,1620.989,798.20514,0.0,0.0,-0.12066650390625,0.0076904296875,1.001708984375,3.117828369140625,-5.9515380859375,-0.695343017578125,44285274.72527473,118796776.55677655,87402051.28205128,79.78668,1.0,2.0,1.0,1.0,4.0,20.0,,0 days 00:00:00.001000
2023-11-16 12:17:14.856,0.95685476,0.7085853,1.0030789,-3.9846292,0.62915736,0.41965374,0.52111435,-3.728819,0.660911,0.55021197,0.6044624,-3.371572,0.27426437,0.52666956,0.3829949,-3.306395,0.24558893,0.15325317,0.071987525,-3.2321553,797.8022,807.47253,817.9487,1630.2565,932.7839,0.0,0.0,-0.12066650390625,0.0076904296875,1.001708984375,3.117828369140625,-5.9515380859375,-0.695343017578125,44285274.72527473,118796776.55677655,87402051.28205128,79.78668,1.0,2.0,1.0,1.0,4.0,20.0,,0 days 00:00:00
2023-11-16 12:17:14.856,0.95685476,0.7085853,1.0030789,-3.9846292,0.62915736,0.41965374,0.52111435,-3.728819,0.660911,0.55021197,0.6044624,-3.371572,0.27426437,0.52666956,0.3829949,-3.306395,0.24558893,0.15325317,0.071987525,-3.2321553,795.38464,813.1135,813.1135,1597.2161,966.63007,0.0,0.0,-0.12066650390625,0.0076904296875,1.001708984375,3.117828369140625,-5.9515380859375,-0.695343017578125,44285274.72527473,118796776.55677655,87402051.28205128,79.78668,1.0,2.0,1.0,1.0,4.0,20.0,,0 days 00:00:00
2023-11-16 12:17:14.857,0.95685476,0.7085853,1.0030789,-3.9846292,0.62915736,0.41965374,0.52111435,-3.728819,0.660911,0.55021197,0.6044624,-3.371572,0.27426437,0.52666956,0.3829949,-3.306395,0.24558893,0.15325317,0.071987525,-3.2321553,790.54944,817.1429,814.3223,1515.4213,832.0513,0.0,0.0,-0.12066650390625,0.0076904296875,1.001708984375,3.117828369140625,-5.9515380859375,-0.695343017578125,44285274.72527473,118796776.55677655,87402051.28205128,79.78668,1.0,2.0,1.0,1.0,4.0,20.0,,0 days 00:00:00.001000
2023-11-16 12:17:14.886,0.95685476,0.7085853,1.0030789,-3.9846292,0.62915736,0.41965374,0.52111435,-3.728819,0.660911,0.55021197,0.6044624,-3.371572,0.27426437,0.52666956,0.3829949,-3.306395,0.24558893,0.15325317,0.071987525,-3.2321553,801.02563,820.7692,815.12823,1468.2784,870.7326,0.0,0.0,-0.11468505859375,0.00537109375,1.00567626953125,2.684173583984375,-4.007568359375,-1.03179931640625,44195018.31501831,118780659.34065934,87420586.08058608,79.16654,1.0,2.0,1.0,1.0,4.0,20.0,,0 days 00:00:00.029000
2023-11-16 12:17:14.886,0.95685476,0.7085853,1.0030789,-3.9846292,0.62915736,0.41965374,0.52111435,-3.728819,0.660911,0.55021197,0.6044624,-3.371572,0.27426437,0.52666956,0.3829949,-3.306395,0.24558893,0.15325317,0.071987525,-3.2321553,786.1172,816.337,811.9048,1391.7216,914.65204,0.0,0.0,-0.11468505859375,0.00537109375,1.00567626953125,2.684173583984375,-4.007568359375,-1.03179931640625,44195018.31501831,118780659.34065934,87420586.08058608,79.16654,1.0,2.0,1.0,1.0,4.0,20.0,,0 days 00:00:00
2023-11-16 12:17:14.887,0.95685476,0.7085853,1.0030789,-3.9846292,0.62915736,0.41965374,0.52111435,-3.728819,0.660911,0.55021197,0.6044624,-3.371572,0.27426437,0.52666956,0.3829949,-3.306395,0.24558893,0.15325317,0.071987525,-3.2321553,763.95605,813.1135,811.0989,1268.8279,823.5897,0.0,0.0,-0.11468505859375,0.00537109375,1.00567626953125,2.684173583984375,-4.007568359375,-1.03179931640625,44195018.31501831,118780659.34065934,87420586.08058608,79.16654,1.0,2.0,1.0,1.0,4.0,20.0,,0 days 00:00:00.001000
2023-11-16 12:17:14.887,0.95685476,0.7085853,1.0030789,-3.9846292,0.62915736,0.41965374,0.52111435,-3.728819,0.660911,0.55021197,0.6044624,-3.371572,0.27426437,0.52666956,0.3829949,-3.306395,0.24558893,0.15325317,0.071987525,-3.2321553,772.01465,819.5604,808.68134,1159.6337,740.58606,0.0,0.0,-0.11468505859375,0.00537109375,1.00567626953125,2.684173583984375,-4.007568359375,-1.03179931640625,44195018.31501831,118780659.34065934,87420586.08058608,79.16654,1.0,2.0,1.0,1.0,4.0,20.0,,0 days 00:00:00
2023-11-16 12:17:14.887,0.95685476,0.7085853,1.0030789,-3.9846292,0.62915736,0.41965374,0.52111435,-3.728819,0.660911,0.55021197,0.6044624,-3.371572,0.27426437,0.52666956,0.3829949,-3.306395,0.24558893,0.15325317,0.071987525,-3.2321553,772.01465,821.978,809.89014,1113.2968,849.3773,0.0,0.0,-0.11468505859375,0.00537109375,1.00567626953125,2.684173583984375,-4.007568359375,-1.03179931640625,44195018.31501831,118780659.34065934,87420586.08058608,79.16654,1.0,2.0,1.0,1.0,4.0,20.0,,0 days 00:00:00
2023-11-16 12:17:14.888,0.95685476,0.7085853,1.0030789,-3.9846292,0.62915736,0.41965374,0.52111435,-3.728819,0.660911,0.55021197,0.6044624,-3.371572,0.27426437,0.52666956,0.3829949,-3.306395,0.24558893,0.15325317,0.071987525,-3.2321553,768.7912,819.9634,810.696,1069.7803,938.8278,0.0,0.0,-0.11468505859375,0.00537109375,1.00567626953125,2.684173583984375,-4.007568359375,-1.03179931640625,44195018.31501831,118780659.34065934,87420586.08058608,79.16654,1.0,2.0,1.0,1.0,4.0,20.0,,0 days 00:00:00.001000
2023-11-16 12:17:14.888,0.95685476,0.7085853,1.0030789,-3.9846292,0.62915736,0.41965374,0.52111435,-3.728819,0.660911,0.55021197,0.6044624,-3.371572,0.27426437,0.52666956,0.3829949,-3.306395,0.24558893,0.15325317,0.071987525,-3.2321553,784.10254,817.5458,809.4872,973.47986,890.4762,0.0,0.0,-0.11468505859375,0.00537109375,1.00567626953125,2.684173583984375,-4.007568359375,-1.03179931640625,44195018.31501831,118780659.34065934,87420586.08058608,79.16654,1.0,2.0,1.0,1.0,4.0,20.0,,0 days 00:00:00
2023-11-16 12:17:14.888,0.95685476,0.7085853,1.0030789,-3.9846292,0.62915736,0.41965374,0.52111435,-3.728819,0.660911,0.55021197,0.6044624,-3.371572,0.27426437,0.52666956,0.3829949,-3.306395,0.24558893,0.15325317,0.071987525,-3.2321553,765.16486,813.91943,809.0842,867.9121,842.52747,0.0,0.0,-0.11468505859375,0.00537109375,1.00567626953125,2.684173583984375,-4.007568359375,-1.03179931640625,44195018.31501831,118780659.34065934,87420586.08058608,79.16654,1.0,2.0,1.0,1.0,4.0,20.0,,0 days 00:00:00
2023-11-16 12:17:14.889,0.95685476,0.7085853,1.0030789,-3.9846292,0.62915736,0.41965374,0.52111435,-3.728819,0.660911,0.55021197,0.6044624,-3.371572,0.27426437,0.52666956,0.3829949,-3.306395,0.24558893,0.15325317,0.071987525,-3.2321553,766.3736,815.5311,807.8755,799.81683,839.707,0.0,0.0,-0.11468505859375,0.00537109375,1.00567626953125,2.684173583984375,-4.007568359375,-1.03179931640625,44195018.31501831,118780659.34065934,87420586.08058608,79.16654,1.0,2.0,1.0,1.0,4.0,20.0,,0 days 00:00:00.001000
2023-11-16 12:17:14.889,0.95685476,0.7085853,1.0030789,-3.9846292,0.62915736,0.41965374,0.52111435,-3.728819,0.660911,0.55021197,0.6044624,-3.371572,0.27426437,0.52666956,0.3829949,-3.306395,0.24558893,0.15325317,0.071987525,-3.2321553,781.685,809.4872,812.71063,782.8938,1024.652,0.0,0.0,-0.11468505859375,0.00537109375,1.00567626953125,2.684173583984375,-4.007568359375,-1.03179931640625,44195018.31501831,118780659.34065934,87420586.08058608,79.16654,1.0,2.0,1.0,1.0,4.0,20.0,,0 days 00:00:00
2023-11-16 12:17:14.889,0.95685476,0.7085853,1.0030789,-3.9846292,0.62915736,0.41965374,0.52111435,-3.728819,0.660911,0.55021197,0.6044624,-3.371572,0.27426437,0.52666956,0.3829949,-3.306395,0.24558893,0.15325317,0.071987525,-3.2321553,758.71796,808.2784,810.696,680.14655,918.68134,0.0,0.0,-0.11468505859375,0.00537109375,1.00567626953125,2.684173583984375,-4.007568359375,-1.03179931640625,44195018.31501831,118780659.34065934,87420586.08058608,79.16654,1.0,2.0,1.0,1.0,4.0,20.0,,0 days 00:00:00
2023-11-16 12:17:14.889,0.95685476,0.7085853,1.0030789,-3.9846292,0.62915736,0.41965374,0.52111435,-3.728819,0.660911,0.55021197,0.6044624,-3.371572,0.27426437,0.52666956,0.3829949,-3.306395,0.24558893,0.15325317,0.071987525,-3.2321553,755.09155,821.1722,807.0696,546.3736,670.4762,0.0,0.0,-0.11468505859375,0.00537109375,1.00567626953125,2.684173583984375,-4.007568359375,-1.03179931640625,44195018.31501831,118780659.34065934,87420586.08058608,79.16654,1.0,2.0,1.0,1.0,4.0,20.0,,0 days 00:00:00
2023-11-16 12:17:14.949,0.95685476,0.7085853,1.0030789,-3.9846292,0.62915736,0.41965374,0.52111435,-3.728819,0.660911,0.55021197,0.6044624,-3.371572,0.27426437,0.52666956,0.3829949,-3.306395,0.24558893,0.15325317,0.071987525,-3.2321553,768.7912,815.12823,806.26373,469.81686,685.78754,0.0,0.0,-0.11468505859375,0.00537109375,1.00567626953125,2.684173583984375,-4.007568359375,-1.03179931640625,44195018.31501831,118780659.34065934,87420586.08058608,79.16654,1.0,2.0,1.0,1.0,4.0,20.0,,0 days 00:00:00.060000
2023-11-16 12:17:14.950,0.95685476,0.7085853,1.0030789,-3.9846292,0.62915736,0.41965374,0.52111435,-3.728819,0.660911,0.55021197,0.6044624,-3.371572,0.27426437,0.52666956,0.3829949,-3.306395,0.24558893,0.15325317,0.071987525,-3.2321553,768.7912,815.12823,804.65204,418.24176,752.27106,0.0,0.0,-0.11468505859375,0.00537109375,1.00567626953125,2.684173583984375,-4.007568359375,-1.03179931640625,44195018.31501831,118780659.34065934,87420586.08058608,79.16654,1.0,2.0,1.0,1.0,4.0,20.0,,0 days 00:00:00.001000
2023-11-16 12:17:14.950,0.95685476,0.7085853,1.0030789,-3.9846292,0.62915736,0.41965374,0.52111435,-3.728819,0.660911,0.55021197,0.6044624,-3.371572,0.27426437,0.52666956,0.3829949,-3.306395,0.24558893,0.15325317,0.071987525,-3.2321553,764.35895,815.12823,811.50183,335.64102,716.4103,0.0,0.0,-0.11468505859375,0.00537109375,1.00567626953125,2.684173583984375,-4.007568359375,-1.03179931640625,44195018.31501831,118780659.34065934,87420586.08058608,79.16654,1.0,2.0,1.0,1.0,4.0,20.0,,0 days 00:00:00
2023-11-16 12:17:14.951,0.95685476,0.7085853,1.0030789,-3.9846292,0.62915736,0.41965374,0.52111435,-3.728819,0.660911,0.55021197,0.6044624,-3.371572,0.27426437,0.52666956,0.3829949,-3.306395,0.24558893,0.15325317,0.071987525,-3.2321553,770.80585,809.4872,808.68134,218.79121,608.8278,0.0,0.0,-0.11468505859375,0.00537109375,1.00567626953125,2.684173583984375,-4.007568359375,-1.03179931640625,44195018.31501831,118780659.34065934,87420586.08058608,79.16654,1.0,2.0,1.0,1.0,4.0,20.0,,0 days 00:00:00.001000
2023-11-16 12:17:14.951,0.95685476,0.7085853,1.0030789,-3.9846292,0.62915736,0.41965374,0.52111435,-3.728819,0.660911,0.55021197,0.6044624,-3.371572,0.27426437,0.52666956,0.3829949,-3.306395,0.24558893,0.15325317,0.071987525,-3.2321553,755.89746,806.6667,793.7729,139.41393,680.14655,0.0,0.0,-0.11468505859375,0.00537109375,1.00567626953125,2.684173583984375,-4.007568359375,-1.03179931640625,44195018.31501831,118780659.34065934,87420586.08058608,79.16654,1.0,2.0,1.0,1.0,4.0,20.0,,0 days 00:00:00
2023-11-16 12:17:14.952,0.95685476,0.7085853,1.0030789,-3.9846292,0.62915736,0.41965374,0.52111435,-3.728819,0.660911,0.55021197,0.6044624,-3.371572,0.27426437,0.52666956,0.3829949,-3.306395,0.24558893,0.15325317,0.071987525,-3.2321553,753.0769,797.3993,801.8315,72.930405,745.42126,0.0,0.0,-0.11468505859375,0.00537109375,1.00567626953125,2.684173583984375,-4.007568359375,-1.03179931640625,44195018.31501831,118780659.34065934,87420586.08058608,79.16654,1.0,2.0,1.0,1.0,4.0,20.0,,0 days 00:00:00.001000
2023-11-16 12:17:14.952,0.95685476,0.7085853,1.0030789,-3.9846292,0.62915736,0.41965374,0.52111435,-3.728819,0.660911,0.55021197,0.6044624,-3.371572,0.27426437,0.52666956,0.3829949,-3.306395,0.24558893,0.15325317,0.071987525,-3.2321553,763.5531,800.2198,810.696,20.54945,725.6777,0.0,0.0,-0.11468505859375,0.00537109375,1.00567626953125,2.684173583984375,-4.007568359375,-1.03179931640625,44195018.31501831,118780659.34065934,87420586.08058608,79.16654,1.0,2.0,1.0,1.0,4.0,20.0,,0 days 00:00:00
2023-11-16 12:17:14.953,0.95685476,0.7085853,1.0030789,-3.9846292,0.62915736,0.41965374,0.52111435,-3.728819,0.660911,0.55021197,0.6044624,-3.371572,0.27426437,0.52666956,0.3829949,-3.306395,0.24558893,0.15325317,0.071987525,-3.2321553,778.86444,810.696,805.4579,0.0,660.80585,0.0,0.0,-0.11468505859375,0.00537109375,1.00567626953125,2.684173583984375,-4.007568359375,-1.03179931640625,44195018.31501831,118780659.34065934,87420586.08058608,79.16654,1.0,2.0,1.0,1.0,4.0,20.0,,0 days 00:00:00.001000
2023-11-16 12:17:14.953,0.95685476,0.7085853,1.0030789,-3.9846292,0.62915736,0.41965374,0.52111435,-3.728819,0.660911,0.55021197,0.6044624,-3.371572,0.27426437,0.52666956,0.3829949,-3.306395,0.24558893,0.15325317,0.071987525,-3.2321553,790.54944,811.0989,806.26373,0.4029304,808.68134,0.0,0.0,-0.11468505859375,0.00537109375,1.00567626953125,2.684173583984375,-4.007568359375,-1.03179931640625,44195018.31501831,118780659.34065934,87420586.08058608,79.16654,1.0,2.0,1.0,1.0,4.0,20.0,,0 days 00:00:00
2023-11-16 12:17:14.954,0.95685476,0.709717,0.9728863,-3.9846292,0.62915736,0.39217907,0.4970681,-3.728819,0.660911,0.55021197,0.59630966,-3.371572,0.27426437,0.5270278,0.38354766,-3.306395,0.24558893,0.15374188,0.09086049,-3.2321553,782.0879,806.6667,803.44324,0.0,910.2198,0.0,0.0,-0.11468505859375,0.00537109375,1.00567626953125,2.684173583984375,-4.007568359375,-1.03179931640625,44195018.31501831,118780659.34065934,87420586.08058608,79.16654,1.0,2.0,1.0,1.0,4.0,20.0,,0 days 00:00:00.001000
2023-11-16 12:17:14.956,0.95685476,0.709717,0.9728863,-3.9846292,0.62915736,0.39217907,0.4970681,-3.728819,0.660911,0.55021197,0.59630966,-3.371572,0.27426437,0.5270278,0.38354766,-3.306395,0.24558893,0.15374188,0.09086049,-3.2321553,777.6557,804.2491,799.011,0.0,705.12823,0.0,0.0,-0.11468505859375,0.00537109375,1.00567626953125,2.684173583984375,-4.007568359375,-1.03179931640625,44195018.31501831,118780659.34065934,87420586.08058608,79.16654,1.0,2.0,1.0,1.0,4.0,20.0,,0 days 00:00:00.002000
2023-11-16 12:17:14.957,0.95685476,0.709717,0.9728863,-3.9846292,0.62915736,0.39217907,0.4970681,-3.728819,0.660911,0.55021197,0.59630966,-3.371572,0.27426437,0.5270278,0.38354766,-3.306395,0.24558893,0.15374188,0.09086049,-3.2321553,782.49084,808.2784,805.4579,0.0,732.9304,0.0,0.0,-0.11468505859375,0.00537109375,1.00567626953125,2.684173583984375,-4.007568359375,-1.03179931640625,44195018.31501831,118780659.34065934,87420586.08058608,79.16654,1.0,2.0,1.0,1.0,4.0,20.0,,0 days 00:00:00.001000
2023-11-16 12:17:14.984,0.95685476,0.709717,0.9728863,-3.9846292,0.62915736,0.39217907,0.4970681,-3.728819,0.660911,0.55021197,0.59630966,-3.371572,0.27426437,0.5270278,0.38354766,-3.306395,0.24558893,0.15374188,0.09086049,-3.2321553,788.1319,814.7253,807.47253,0.0,824.7985,0.0,0.0,-0.121337890625,0.015380859375,0.9918212890625,2.549591064453125,-3.132781982421875,0.171966552734375,44261098.9010989,118785494.5054945,87447179.48717949,78.58269,1.0,2.0,1.0,1.0,4.0,20.0,,0 days 00:00:00.027000
2023-11-16 12:17:14.985,0.95685476,0.709717,0.9728863,-3.9846292,0.62915736,0.39217907,0.4970681,-3.728819,0.660911,0.55021197,0.59630966,-3.371572,0.27426437,0.5270278,0.38354766,-3.306395,0.24558893,0.15374188,0.09086049,-3.2321553,783.2967,806.6667,798.20514,0.0,805.4579,0.0,0.0,-0.121337890625,0.015380859375,0.9918212890625,2.549591064453125,-3.132781982421875,0.171966552734375,44261098.9010989,118785494.5054945,87447179.48717949,78.58269,1.0,2.0,1.0,1.0,4.0,20.0,,0 days 00:00:00.001000
2023-11-16 12:17:14.986,0.95685476,0.709717,0.9728863,-3.9846292,0.62915736,0.39217907,0.4970681,-3.728819,0.660911,0.55021197,0.59630966,-3.371572,0.27426437,0.5270278,0.38354766,-3.306395,0.24558893,0.15374188,0.09086049,-3.2321553,753.47986,797.3993,794.9817,0.0,775.64105,0.0,0.0,-0.121337890625,0.015380859375,0.9918212890625,2.549591064453125,-3.132781982421875,0.171966552734375,44261098.9010989,118785494.5054945,87447179.48717949,78.58269,1.0,2.0,1.0,1.0,4.0,20.0,,0 days 00:00:00.001000
2023-11-16 12:17:14.986,0.95685476,0.709717,0.9728863,-3.9846292,0.62915736,0.39217907,0.4970681,-3.728819,0.660911,0.55021197,0.59630966,-3.371572,0.27426437,0.5270278,0.38354766,-3.306395,0.24558893,0.15374188,0.09086049,-3.2321553,767.98535,803.0403,803.8461,0.0,780.87915,0.0,0.0,-0.121337890625,0.015380859375,0.9918212890625,2.549591064453125,-3.132781982421875,0.171966552734375,44261098.9010989,118785494.5054945,87447179.48717949,78.58269,1.0,2.0,1.0,1.0,4.0,20.0,,0 days 00:00:00
2023-11-16 12:17:14.986,0.95685476,0.709717,0.9728863,-3.9846292,0.62915736,0.39217907,0.4970681,-3.728819,0.660911,0.55021197,0.59630966,-3.371572,0.27426437,0.5270278,0.38354766,-3.306395,0.24558893,0.15374188,0.09086049,-3.2321553,787.326,803.44324,803.0403,0.0,790.14655,0.0,0.0,-0.121337890625,0.015380859375,0.9918212890625,2.549591064453125,-3.132781982421875,0.171966552734375,44261098.9010989,118785494.5054945,87447179.48717949,78.58269,1.0,2.0,1.0,1.0,4.0,20.0,,0 days 00:00:00
2023-11-16 12:17:14.987,0.95685476,0.709717,0.9728863,-3.9846292,0.62915736,0.39217907,0.4970681,-3.728819,0.660911,0.55021197,0.59630966,-3.371572,0.27426437,0.5270278,0.38354766,-3.306395,0.24558893,0.15374188,0.09086049,-3.2321553,776.8498,801.8315,799.81683,0.0,793.7729,0.0,0.0,-0.121337890625,0.015380859375,0.9918212890625,2.549591064453125,-3.132781982421875,0.171966552734375,44261098.9010989,118785494.5054945,87447179.48717949,78.58269,1.0,2.0,1.0,1.0,4.0,20.0,,0 days 00:00:00.001000
2023-11-16 12:17:14.987,0.95685476,0.709717,0.9728863,-3.9846292,0.62915736,0.39217907,0.4970681,-3.728819,0.660911,0.55021197,0.59630966,-3.371572,0.27426437,0.5270278,0.38354766,-3.306395,0.24558893,0.15374188,0.09086049,-3.2321553,764.35895,799.81683,801.8315,0.0,798.20514,0.0,0.0,-0.121337890625,0.015380859375,0.9918212890625,2.549591064453125,-3.132781982421875,0.171966552734375,44261098.9010989,118785494.5054945,87447179.48717949,78.58269,1.0,2.0,1.0,1.0,4.0,20.0,,0 days 00:00:00
2023-11-16 12:17:14.988,0.95685476,0.709717,0.9728863,-3.9846292,0.62915736,0.39217907,0.4970681,-3.728819,0.660911,0.55021197,0.59630966,-3.371572,0.27426437,0.5270278,0.38354766,-3.306395,0.24558893,0.15374188,0.09086049,-3.2321553,766.3736,794.17584,803.0403,0.0,853.8095,0.0,0.0,-0.121337890625,0.015380859375,0.9918212890625,2.549591064453125,-3.132781982421875,0.171966552734375,44261098.9010989,118785494.5054945,87447179.48717949,78.58269,1.0,2.0,1.0,1.0,4.0,20.0,,0 days 00:00:00.001000
2023-11-16 12:17:14.988,0.95685476,0.709717,0.9728863,-3.9846292,0.62915736,0.39217907,0.4970681,-3.728819,0.660911,0.55021197,0.59630966,-3.371572,0.27426437,0.5270278,0.38354766,-3.306395,0.24558893,0.15374188,0.09086049,-3.2321553,791.3553,794.9817,805.8608,0.0,966.2271,0.0,0.0,-0.121337890625,0.015380859375,0.9918212890625,2.549591064453125,-3.132781982421875,0.171966552734375,44261098.9010989,118785494.5054945,87447179.48717949,78.58269,1.0,2.0,1.0,1.0,4.0,20.0,,0 days 00:00:00
2023-11-16 12:17:14.989,0.95685476,0.709717,0.9728863,-3.9846292,0.62915736,0.39217907,0.4970681,-3.728819,0.660911,0.55021197,0.59630966,-3.371572,0.27426437,0.5270278,0.38354766,-3.306395,0.24558893,0.15374188,0.09086049,-3.2321553,788.93774,804.2491,804.65204,0.0,829.2308,0.0,0.0,-0.121337890625,0.015380859375,0.9918212890625,2.549591064453125,-3.132781982421875,0.171966552734375,44261098.9010989,118785494.5054945,87447179.48717949,78.58269,1.0,2.0,1.0,1.0,4.0,20.0,,0 days 00:00:00.001000
2023-11-16 12:17:14.989,0.95685476,0.709717,0.9728863,-3.9846292,0.62915736,0.39217907,0.4970681,-3.728819,0.660911,0.55021197,0.59630966,-3.371572,0.27426437,0.5270278,0.38354766,-3.306395,0.24558893,0.15374188,0.09086049,-3.2321553,780.4762,805.05493,809.0842,0.0,673.69965,0.0,0.0,-0.121337890625,0.015380859375,0.9918212890625,2.549591064453125,-3.132781982421875,0.171966552734375,44261098.9010989,118785494.5054945,87447179.48717949,78.58269,1.0,2.0,1.0,1.0,4.0,20.0,,0 days 00:00:00
2023-11-16 12:17:14.990,0.95685476,0.709717,0.9728863,-3.9846292,0.62915736,0.39217907,0.4970681,-3.728819,0.660911,0.55021197,0.59630966,-3.371572,0.27426437,0.5270278,0.38354766,-3.306395,0.24558893,0.15374188,0.09086049,-3.2321553,788.93774,800.6227,807.0696,0.0,802.23444,0.0,0.0,-0.121337890625,0.015380859375,0.9918212890625,2.549591064453125,-3.132781982421875,0.171966552734375,44261098.9010989,118785494.5054945,87447179.48717949,78.58269,1.0,2.0,1.0,1.0,4.0,20.0,,0 days 00:00:00.001000
2023-11-16 12:17:15.023,0.95685476,0.709717,0.9728863,-3.9846292,0.62915736,0.39217907,0.4970681,-3.728819,0.660911,0.55021197,0.59630966,-3.371572,0.27426437,0.5270278,0.38354766,-3.306395,0.24558893,0.15374188,0.09086049,-3.2321553,797.8022,800.2198,806.26373,0.0,1014.9817,0.0,0.0,-0.119384765625,0.00537109375,1.01190185546875,3.18511962890625,-5.091705322265625,-0.097198486328125,44261098.9010989,118785494.5054945,87447179.48717949,78.58269,1.0,2.0,1.0,1.0,4.0,20.0,,0 days 00:00:00.033000
2023-11-16 12:17:15.025,0.95685476,0.709717,0.9728863,-3.9846292,0.62915736,0.39217907,0.4970681,-3.728819,0.660911,0.55021197,0.59630966,-3.371572,0.27426437,0.5270278,0.38354766,-3.306395,0.24558893,0.15374188,0.09086049,-3.2321553,781.28204,805.8608,803.8461,0.0,899.34064,0.0,0.0,-0.119384765625,0.00537109375,1.01190185546875,3.18511962890625,-5.091705322265625,-0.097198486328125,44261098.9010989,118785494.5054945,87447179.48717949,78.58269,1.0,2.0,1.0,1.0,4.0,20.0,,0 days 00:00:00.002000
2023-11-16 12:17:15.025,0.95685476,0.709717,0.9728863,-3.9846292,0.62915736,0.39217907,0.4970681,-3.728819,0.660911,0.55021197,0.59630966,-3.371572,0.27426437,0.5270278,0.38354766,-3.306395,0.24558893,0.15374188,0.09086049,-3.2321553,770.40295,803.44324,798.20514,0.0,697.8755,0.0,0.0,-0.119384765625,0.00537109375,1.01190185546875,3.18511962890625,-5.091705322265625,-0.097198486328125,44261098.9010989,118785494.5054945,87447179.48717949,78.58269,1.0,2.0,1.0,1.0,4.0,20.0,,0 days 00:00:00
2023-11-16 12:17:15.026,0.95685476,0.709717,0.9728863,-3.9846292,0.62915736,0.39217907,0.4970681,-3.728819,0.660911,0.55021197,0.59630966,-3.371572,0.27426437,0.5270278,0.38354766,-3.306395,0.24558893,0.15374188,0.09086049,-3.2321553,787.72894,803.44324,807.8755,0.0,732.52747,0.0,0.0,-0.119384765625,0.00537109375,1.01190185546875,3.18511962890625,-5.091705322265625,-0.097198486328125,44261098.9010989,118785494.5054945,87447179.48717949,78.58269,1.0,2.0,1.0,1.0,4.0,20.0,,0 days 00:00:00.001000
2023-11-16 12:17:15.026,0.95685476,0.709717,0.9728863,-3.9846292,0.62915736,0.39217907,0.4970681,-3.728819,0.660911,0.55021197,0.59630966,-3.371572,0.27426437,0.5270278,0.38354766,-3.306395,0.24558893,0.15374188,0.09086049,-3.2321553,786.52014,807.0696,804.2491,1.2087913,772.01465,0.0,0.0,-0.119384765625,0.00537109375,1.01190185546875,3.18511962890625,-5.091705322265625,-0.097198486328125,44261098.9010989,118785494.5054945,87447179.48717949,78.58269,1.0,2.0,1.0,1.0,4.0,20.0,,0 days 00:00:00
2023-11-16 12:17:15.027,0.95685476,0.709717,0.9728863,-3.9846292,0.62915736,0.39217907,0.4970681,-3.728819,0.660911,0.55021197,0.59630966,-3.371572,0.27426437,0.5270278,0.38354766,-3.306395,0.24558893,0.15374188,0.09086049,-3.2321553,772.4176,799.81683,796.99634,0.0,751.4652,0.0,0.0,-0.119384765625,0.00537109375,1.01190185546875,3.18511962890625,-5.091705322265625,-0.097198486328125,44261098.9010989,118785494.5054945,87447179.48717949,78.58269,1.0,2.0,1.0,1.0,4.0,20.0,,0 days 00:00:00.001000
2023-11-16 12:17:15.027,0.95685476,0.709717,0.9728863,-3.9846292,0.62915736,0.39217907,0.4970681,-3.728819,0.660911,0.55021197,0.59630966,-3.371572,0.27426437,0.5270278,0.38354766,-3.306395,0.24558893,0.15374188,0.09086049,-3.2321553,774.83514,794.9817,799.81683,5.2380953,763.1502,0.0,0.0,-0.119384765625,0.00537109375,1.01190185546875,3.18511962890625,-5.091705322265625,-0.097198486328125,44261098.9010989,118785494.5054945,87447179.48717949,78.58269,1.0,2.0,1.0,1.0,4.0,20.0,,0 days 00:00:00
2023-11-16 12:17:15.027,0.95685476,0.709717,0.9728863,-3.9846292,0.62915736,0.39217907,0.4970681,-3.728819,0.660911,0.55021197,0.59630966,-3.371572,0.27426437,0.5270278,0.38354766,-3.306395,0.24558893,0.15374188,0.09086049,-3.2321553,787.326,801.02563,806.6667,78.97436,971.8681,0.0,0.0,-0.119384765625,0.00537109375,1.01190185546875,3.18511962890625,-5.091705322265625,-0.097198486328125,44261098.9010989,118785494.5054945,87447179.48717949,78.58269,1.0,2.0,1.0,1.0,4.0,20.0,,0 days 00:00:00
2023-11-16 12:17:15.028,0.95685476,0.709717,0.9728863,-3.9846292,0.62915736,0.39217907,0.4970681,-3.728819,0.660911,0.55021197,0.59630966,-3.371572,0.27426437,0.5270278,0.38354766,-3.306395,0.24558893,0.15374188,0.09086049,-3.2321553,797.3993,805.4579,805.4579,107.17949,988.7912,0.0,0.0,-0.119384765625,0.00537109375,1.01190185546875,3.18511962890625,-5.091705322265625,-0.097198486328125,44261098.9010989,118785494.5054945,87447179.48717949,78.58269,1.0,2.0,1.0,1.0,4.0,20.0,,0 days 00:00:00.001000
2023-11-16 12:17:15.029,0.95685476,0.709717,0.9728863,-3.9846292,0.62915736,0.39217907,0.4970681,-3.728819,0.660911,0.55021197,0.59630966,-3.371572,0.27426437,0.5270278,0.38354766,-3.306395,0.24558893,0.15374188,0.09086049,-3.2321553,769.59705,792.96704,794.17584,80.58608,755.4945,0.0,0.0,-0.119384765625,0.00537109375,1.01190185546875,3.18511962890625,-5.091705322265625,-0.097198486328125,44261098.9010989,118785494.5054945,87447179.48717949,78.58269,1.0,2.0,1.0,1.0,4.0,20.0,,0 days 00:00:00.001000
2023-11-16 12:17:15.029,0.95685476,0.709717,0.9728863,-3.9846292,0.62915736,0.39217907,0.4970681,-3.728819,0.660911,0.55021197,0.59630966,-3.371572,0.27426437,0.5270278,0.38354766,-3.306395,0.24558893,0.15374188,0.09086049,-3.2321553,779.2674,801.8315,807.0696,105.970695,713.9927,0.0,0.0,-0.119384765625,0.00537109375,1.01190185546875,3.18511962890625,-5.091705322265625,-0.097198486328125,44261098.9010989,118785494.5054945,87447179.48717949,78.58269,1.0,2.0,1.0,1.0,4.0,20.0,,0 days 00:00:00
2023-11-16 12:17:15.029,0.95685476,0.6897809,0.8988335,-3.9846292,0.62915736,0.33418274,0.43989158,-3.728819,0.660911,0.51662606,0.5835523,-3.371572,0.27426437,0.52650934,0.37056747,-3.306395,0.24558893,0.15342842,0.11746951,-3.2321553,813.5165,818.3516,818.3516,140.62271,749.0476,0.0,0.0,-0.119384765625,0.00537109375,1.01190185546875,3.18511962890625,-5.091705322265625,-0.097198486328125,44261098.9010989,118785494.5054945,87447179.48717949,78.58269,1.0,2.0,1.0,1.0,4.0,20.0,,0 days 00:00:00
2023-11-16 12:17:15.072,0.95685476,0.6897809,0.8988335,-3.9846292,0.62915736,0.33418274,0.43989158,-3.728819,0.660911,0.51662606,0.5835523,-3.371572,0.27426437,0.52650934,0.37056747,-3.306395,0.24558893,0.15342842,0.11746951,-3.2321553,796.99634,807.0696,803.8461,160.76923,738.5714,0.0,0.0,-0.12738037109375,0.0093994140625,0.99285888671875,2.61688232421875,-5.016937255859375,-0.456085205078125,44237728.937728934,118858827.83882783,87481025.64102563,78.033,1.0,2.0,1.0,1.0,4.0,20.0,,0 days 00:00:00.043000
2023-11-16 12:17:15.073,0.95685476,0.6897809,0.8988335,-3.9846292,0.62915736,0.33418274,0.43989158,-3.728819,0.660911,0.51662606,0.5835523,-3.371572,0.27426437,0.52650934,0.37056747,-3.306395,0.24558893,0.15342842,0.11746951,-3.2321553,791.3553,802.6374,808.2784,159.96336,680.54944,0.0,0.0,-0.12738037109375,0.0093994140625,0.99285888671875,2.61688232421875,-5.016937255859375,-0.456085205078125,44237728.937728934,118858827.83882783,87481025.64102563,78.033,1.0,2.0,1.0,1.0,4.0,20.0,,0 days 00:00:00.001000
2023-11-16 12:17:15.074,0.95685476,0.6897809,0.8988335,-3.9846292,0.62915736,0.33418274,0.43989158,-3.728819,0.660911,0.51662606,0.5835523,-3.371572,0.27426437,0.52650934,0.37056747,-3.306395,0.24558893,0.15342842,0.11746951,-3.2321553,794.57874,800.6227,813.5165,153.91942,684.17584,0.0,0.0,-0.12738037109375,0.0093994140625,0.99285888671875,2.61688232421875,-5.016937255859375,-0.456085205078125,44237728.937728934,118858827.83882783,87481025.64102563,78.033,1.0,2.0,1.0,1.0,4.0,20.0,,0 days 00:00:00.001000
2023-11-16 12:17:15.074,0.95685476,0.6897809,0.8988335,-3.9846292,0.62915736,0.33418274,0.43989158,-3.728819,0.660911,0.51662606,0.5835523,-3.371572,0.27426437,0.52650934,0.37056747,-3.306395,0.24558893,0.15342842,0.11746951,-3.2321553,787.326,801.4286,811.9048,168.82784,728.9011,0.0,0.0,-0.12738037109375,0.0093994140625,0.99285888671875,2.61688232421875,-5.016937255859375,-0.456085205078125,44237728.937728934,118858827.83882783,87481025.64102563,78.033,1.0,2.0,1.0,1.0,4.0,20.0,,0 days 00:00:00
2023-11-16 12:17:15.075,0.95685476,0.6897809,0.8988335,-3.9846292,0.62915736,0.33418274,0.43989158,-3.728819,0.660911,0.51662606,0.5835523,-3.371572,0.27426437,0.52650934,0.37056747,-3.306395,0.24558893,0.15342842,0.11746951,-3.2321553,794.57874,809.89014,817.1429,172.05128,732.9304,0.0,0.0,-0.12738037109375,0.0093994140625,0.99285888671875,2.61688232421875,-5.016937255859375,-0.456085205078125,44237728.937728934,118858827.83882783,87481025.64102563,78.033,1.0,2.0,1.0,1.0,4.0,20.0,,0 days 00:00:00.001000
2023-11-16 12:17:15.075,0.95685476,0.6897809,0.8988335,-3.9846292,0.62915736,0.33418274,0.43989158,-3.728819,0.660911,0.51662606,0.5835523,-3.371572,0.27426437,0.52650934,0.37056747,-3.306395,0.24558893,0.15342842,0.11746951,-3.2321553,799.81683,810.293,818.3516,167.61905,750.65936,0.0,0.0,-0.12738037109375,0.0093994140625,0.99285888671875,2.61688232421875,-5.016937255859375,-0.456085205078125,44237728.937728934,118858827.83882783,87481025.64102563,78.033,1.0,2.0,1.0,1.0,4.0,20.0,,0 days 00:00:00
2023-11-16 12:17:15.076,0.95685476,0.6897809,0.8988335,-3.9846292,0.62915736,0.33418274,0.43989158,-3.728819,0.660911,0.51662606,0.5835523,-3.371572,0.27426437,0.52650934,0.37056747,-3.306395,0.24558893,0.15342842,0.11746951,-3.2321553,791.75824,804.2491,810.696,169.23077,815.9341,0.0,0.0,-0.12738037109375,0.0093994140625,0.99285888671875,2.61688232421875,-5.016937255859375,-0.456085205078125,44237728.937728934,118858827.83882783,87481025.64102563,78.033,1.0,2.0,1.0,1.0,4.0,20.0,,0 days 00:00:00.001000
2023-11-16 12:17:15.077,0.95685476,0.6897809,0.8988335,-3.9846292,0.62915736,0.33418274,0.43989158,-3.728819,0.660911,0.51662606,0.5835523,-3.371572,0.27426437,0.52650934,0.37056747,-3.306395,0.24558893,0.15342842,0.11746951,-3.2321553,799.41394,796.99634,806.26373,199.85349,1069.7803,0.0,0.0,-0.12738037109375,0.0093994140625,0.99285888671875,2.61688232421875,-5.016937255859375,-0.456085205078125,44237728.937728934,118858827.83882783,87481025.64102563,78.033,1.0,2.0,1.0,1.0,4.0,20.0,,0 days 00:00:00.001000
2023-11-16 12:17:15.077,0.95685476,0.6897809,0.8988335,-3.9846292,0.62915736,0.33418274,0.43989158,-3.728819,0.660911,0.51662606,0.5835523,-3.371572,0.27426437,0.52650934,0.37056747,-3.306395,0.24558893,0.15342842,0.11746951,-3.2321553,788.5348,800.6227,801.02563,121.68498,963.4066,0.0,0.0,-0.12738037109375,0.0093994140625,0.99285888671875,2.61688232421875,-5.016937255859375,-0.456085205078125,44237728.937728934,118858827.83882783,87481025.64102563,78.033,1.0,2.0,1.0,1.0,4.0,20.0,,0 days 00:00:00
2023-11-16 12:17:15.077,0.95685476,0.6897809,0.8988335,-3.9846292,0.62915736,0.33418274,0.43989158,-3.728819,0.660911,0.51662606,0.5835523,-3.371572,0.27426437,0.52650934,0.37056747,-3.306395,0.24558893,0.15342842,0.11746951,-3.2321553,784.5055,805.4579,804.2491,2.4175825,622.9304,0.0,0.0,-0.12738037109375,0.0093994140625,0.99285888671875,2.61688232421875,-5.016937255859375,-0.456085205078125,44237728.937728934,118858827.83882783,87481025.64102563,78.033,1.0,2.0,1.0,1.0,4.0,20.0,,0 days 00:00:00
2023-11-16 12:17:15.077,0.95685476,0.6897809,0.8988335,-3.9846292,0.62915736,0.33418274,0.43989158,-3.728819,0.660911,0.51662606,0.5835523,-3.371572,0.27426437,0.52650934,0.37056747,-3.306395,0.24558893,0.15342842,0.11746951,-3.2321553,794.17584,801.4286,809.89014,6.0439563,682.5641,0.0,0.0,-0.12738037109375,0.0093994140625,0.99285888671875,2.61688232421875,-5.016937255859375,-0.456085205078125,44237728.937728934,118858827.83882783,87481025.64102563,78.033,1.0,2.0,1.0,1.0,4.0,20.0,,0 days 00:00:00
2023-11-16 12:17:15.078,0.95685476,0.6897809,0.8988335,-3.9846292,0.62915736,0.33418274,0.43989158,-3.728819,0.660911,0.51662606,0.5835523,-3.371572,0.27426437,0.52650934,0.37056747,-3.306395,0.24558893,0.15342842,0.11746951,-3.2321553,791.3553,802.6374,806.6667,5.2380953,717.2161,0.0,0.0,-0.12738037109375,0.0093994140625,0.99285888671875,2.61688232421875,-5.016937255859375,-0.456085205078125,44237728.937728934,118858827.83882783,87481025.64102563,78.033,1.0,2.0,1.0,1.0,4.0,20.0,,0 days 00:00:00.001000
2023-11-16 12:17:15.101,0.95685476,0.6897809,0.8988335,-3.9846292,0.62915736,0.33418274,0.43989158,-3.728819,0.660911,0.51662606,0.5835523,-3.371572,0.27426437,0.52650934,0.37056747,-3.306395,0.24558893,0.15342842,0.11746951,-3.2321553,793.7729,808.2784,802.23444,0.4029304,714.7985,0.0,0.0,-0.12762451171875,0.0107421875,0.99639892578125,2.88604736328125,-4.88983154296875,-1.203765869140625,44237728.937728934,118858827.83882783,87481025.64102563,78.033,1.0,2.0,1.0,1.0,4.0,20.0,,0 days 00:00:00.023000
2023-11-16 12:17:15.101,0.95685476,0.6897809,0.8988335,-3.9846292,0.62915736,0.33418274,0.43989158,-3.728819,0.660911,0.51662606,0.5835523,-3.371572,0.27426437,0.52650934,0.37056747,-3.306395,0.24558893,0.15342842,0.11746951,-3.2321553,793.36993,810.696,800.2198,4.029304,696.6667,0.0,0.0,-0.12762451171875,0.0107421875,0.99639892578125,2.88604736328125,-4.88983154296875,-1.203765869140625,44237728.937728934,118858827.83882783,87481025.64102563,78.033,1.0,2.0,1.0,1.0,4.0,20.0,,0 days 00:00:00
2023-11-16 12:17:15.102,0.95685476,0.6897809,0.8988335,-3.9846292,0.62915736,0.33418274,0.43989158,-3.728819,0.660911,0.51662606,0.5835523,-3.371572,0.27426437,0.52650934,0.37056747,-3.306395,0.24558893,0.15342842,0.11746951,-3.2321553,792.96704,804.65204,801.4286,0.0,736.1539,0.0,0.0,-0.12762451171875,0.0107421875,0.99639892578125,2.88604736328125,-4.88983154296875,-1.203765869140625,44237728.937728934,118858827.83882783,87481025.64102563,78.033,1.0,2.0,1.0,1.0,4.0,20.0,,0 days 00:00:00.001000
2023-11-16 12:17:15.102,0.95685476,0.6897809,0.8988335,-3.9846292,0.62915736,0.33418274,0.43989158,-3.728819,0.660911,0.51662606,0.5835523,-3.371572,0.27426437,0.52650934,0.37056747,-3.306395,0.24558893,0.15342842,0.11746951,-3.2321553,792.96704,807.47253,804.2491,0.0,793.7729,0.0,0.0,-0.12762451171875,0.0107421875,0.99639892578125,2.88604736328125,-4.88983154296875,-1.203765869140625,44237728.937728934,118858827.83882783,87481025.64102563,78.033,1.0,2.0,1.0,1.0,4.0,20.0,,0 days 00:00:00
2023-11-16 12:17:15.102,0.95685476,0.6897809,0.8988335,-3.9846292,0.62915736,0.33418274,0.43989158,-3.728819,0.660911,0.51662606,0.5835523,-3.371572,0.27426437,0.52650934,0.37056747,-3.306395,0.24558893,0.15342842,0.11746951,-3.2321553,807.8755,813.1135,800.2198,0.0,628.97437,0.0,0.0,-0.12762451171875,0.0107421875,0.99639892578125,2.88604736328125,-4.88983154296875,-1.203765869140625,44237728.937728934,118858827.83882783,87481025.64102563,78.033,1.0,2.0,1.0,1.0,4.0,20.0,,0 days 00:00:00
2023-11-16 12:17:15.103,0.95685476,0.6897809,0.8988335,-3.9846292,0.62915736,0.33418274,0.43989158,-3.728819,0.660911,0.51662606,0.5835523,-3.371572,0.27426437,0.52650934,0.37056747,-3.306395,0.24558893,0.15342842,0.11746951,-3.2321553,808.68134,804.2491,798.20514,0.0,593.1135,0.0,0.0,-0.12762451171875,0.0107421875,0.99639892578125,2.88604736328125,-4.88983154296875,-1.203765869140625,44237728.937728934,118858827.83882783,87481025.64102563,78.033,1.0,2.0,1.0,1.0,4.0,20.0,,0 days 00:00:00.001000
2023-11-16 12:17:15.103,0.95685476,0.6897809,0.8988335,-3.9846292,0.62915736,0.33418274,0.43989158,-3.728819,0.660911,0.51662606,0.5835523,-3.371572,0.27426437,0.52650934,0.37056747,-3.306395,0.24558893,0.15342842,0.11746951,-3.2321553,792.1612,793.7729,794.9817,0.0,804.65204,0.0,0.0,-0.12762451171875,0.0107421875,0.99639892578125,2.88604736328125,-4.88983154296875,-1.203765869140625,44237728.937728934,118858827.83882783,87481025.64102563,78.033,1.0,2.0,1.0,1.0,4.0,20.0,,0 days 00:00:00
2023-11-16 12:17:15.103,0.95685476,0.6897809,0.8988335,-3.9846292,0.62915736,0.33418274,0.43989158,-3.728819,0.660911,0.51662606,0.5835523,-3.371572,0.27426437,0.52650934,0.37056747,-3.306395,0.24558893,0.15342842,0.11746951,-3.2321553,787.72894,798.60803,793.36993,0.0,906.1905,0.0,0.0,-0.12762451171875,0.0107421875,0.99639892578125,2.88604736328125,-4.88983154296875,-1.203765869140625,44237728.937728934,118858827.83882783,87481025.64102563,78.033,1.0,2.0,1.0,1.0,4.0,20.0,,0 days 00:00:00
2023-11-16 12:17:15.104,0.95685476,0.6897809,0.8988335,-3.9846292,0.62915736,0.33418274,0.43989158,-3.728819,0.660911,0.51662606,0.5835523,-3.371572,0.27426437,0.52650934,0.37056747,-3.306395,0.24558893,0.15342842,0.11746951,-3.2321553,792.5641,812.3077,796.99634,0.0,749.85345,0.0,0.0,-0.12762451171875,0.0107421875,0.99639892578125,2.88604736328125,-4.88983154296875,-1.203765869140625,44237728.937728934,118858827.83882783,87481025.64102563,78.033,1.0,2.0,1.0,1.0,4.0,20.0,,0 days 00:00:00.001000
2023-11-16 12:17:15.104,0.95685476,0.6897809,0.8988335,-3.9846292,0.62915736,0.33418274,0.43989158,-3.728819,0.660911,0.51662606,0.5835523,-3.371572,0.27426437,0.52650934,0.37056747,-3.306395,0.24558893,0.15342842,0.11746951,-3.2321553,790.54944,807.8755,800.6227,0.0,774.0293,0.0,0.0,-0.12762451171875,0.0107421875,0.99639892578125,2.88604736328125,-4.88983154296875,-1.203765869140625,44237728.937728934,118858827.83882783,87481025.64102563,78.033,1.0,2.0,1.0,1.0,4.0,20.0,,0 days 00:00:00
2023-11-16 12:17:15.104,0.95685476,0.6897809,0.8988335,-3.9846292,0.62915736,0.33418274,0.43989158,-3.728819,0.660911,0.51662606,0.5835523,-3.371572,0.27426437,0.52650934,0.37056747,-3.306395,0.24558893,0.15342842,0.11746951,-3.2321553,790.9524,810.696,806.6667,0.0,793.7729,0.0,0.0,-0.12762451171875,0.0107421875,0.99639892578125,2.88604736328125,-4.88983154296875,-1.203765869140625,44237728.937728934,118858827.83882783,87481025.64102563,78.033,1.0,2.0,1.0,1.0,4.0,20.0,,0 days 00:00:00
2023-11-16 12:17:15.105,0.95685476,0.6897809,0.8988335,-3.9846292,0.62915736,0.33418274,0.43989158,-3.728819,0.660911,0.51662606,0.5835523,-3.371572,0.27426437,0.52650934,0.37056747,-3.306395,0.24558893,0.15342842,0.11746951,-3.2321553,792.5641,809.4872,806.6667,0.0,739.7802,0.0,0.0,-0.12762451171875,0.0107421875,0.99639892578125,2.88604736328125,-4.88983154296875,-1.203765869140625,44237728.937728934,118858827.83882783,87481025.64102563,78.033,1.0,2.0,1.0,1.0,4.0,20.0,,0 days 00:00:00.001000
2023-11-16 12:17:15.169,0.95685476,0.6897809,0.8988335,-3.9846292,0.62915736,0.33418274,0.43989158,-3.728819,0.660911,0.51662606,0.5835523,-3.371572,0.27426437,0.52650934,0.37056747,-3.306395,0.24558893,0.15342842,0.11746951,-3.2321553,782.8938,798.60803,803.0403,0.0,689.011,0.0,0.0,-0.12762451171875,0.0107421875,0.99639892578125,2.88604736328125,-4.88983154296875,-1.203765869140625,44242564.102564104,118840293.04029304,87509230.76923077,77.51548,1.0,2.0,1.0,1.0,4.0,20.0,,0 days 00:00:00.064000
2023-11-16 12:17:15.169,0.95685476,0.65551984,0.78785396,-3.9846292,0.62915736,0.27144155,0.37795514,-3.728819,0.660911,0.4476976,0.5835523,-3.371572,0.27426437,0.5340369,0.35399884,-3.306395,0.24558893,0.1574944,0.14610739,-3.2321553,789.34064,800.2198,802.23444,0.0,711.1722,0.0,0.0,-0.12762451171875,0.0107421875,0.99639892578125,2.88604736328125,-4.88983154296875,-1.203765869140625,44242564.102564104,118840293.04029304,87509230.76923077,77.51548,1.0,2.0,1.0,1.0,4.0,20.0,,0 days 00:00:00
2023-11-16 12:17:15.171,0.95685476,0.65551984,0.78785396,-3.9846292,0.62915736,0.27144155,0.37795514,-3.728819,0.660911,0.4476976,0.5835523,-3.371572,0.27426437,0.5340369,0.35399884,-3.306395,0.24558893,0.1574944,0.14610739,-3.2321553,789.34064,808.2784,805.4579,0.0,802.23444,0.0,0.0,-0.12762451171875,0.0107421875,0.99639892578125,2.88604736328125,-4.88983154296875,-1.203765869140625,44242564.102564104,118840293.04029304,87509230.76923077,77.51548,1.0,2.0,1.0,1.0,4.0,20.0,,0 days 00:00:00.002000
2023-11-16 12:17:15.172,0.95685476,0.65551984,0.78785396,-3.9846292,0.62915736,0.27144155,0.37795514,-3.728819,0.660911,0.4476976,0.5835523,-3.371572,0.27426437,0.5340369,0.35399884,-3.306395,0.24558893,0.1574944,0.14610739,-3.2321553,782.49084,808.68134,801.4286,0.0,869.92676,0.0,0.0,-0.12762451171875,0.0107421875,0.99639892578125,2.88604736328125,-4.88983154296875,-1.203765869140625,44242564.102564104,118840293.04029304,87509230.76923077,77.51548,1.0,2.0,1.0,1.0,4.0,20.0,,0 days 00:00:00.001000
2023-11-16 12:17:15.172,0.95685476,0.65551984,0.78785396,-3.9846292,0.62915736,0.27144155,0.37795514,-3.728819,0.660911,0.4476976,0.5835523,-3.371572,0.27426437,0.5340369,0.35399884,-3.306395,0.24558893,0.1574944,0.14610739,-3.2321553,790.9524,806.26373,803.0403,0.0,793.7729,0.0,0.0,-0.12762451171875,0.0107421875,0.99639892578125,2.88604736328125,-4.88983154296875,-1.203765869140625,44242564.102564104,118840293.04029304,87509230.76923077,77.51548,1.0,2.0,1.0,1.0,4.0,20.0,,0 days 00:00:00
2023-11-16 12:17:15.173,0.95685476,0.65551984,0.78785396,-3.9846292,0.62915736,0.27144155,0.37795514,-3.728819,0.660911,0.4476976,0.5835523,-3.371572,0.27426437,0.5340369,0.35399884,-3.306395,0.24558893,0.1574944,0.14610739,-3.2321553,773.22345,800.2198,799.81683,0.0,738.5714,0.0,0.0,-0.12762451171875,0.0107421875,0.99639892578125,2.88604736328125,-4.88983154296875,-1.203765869140625,44242564.102564104,118840293.04029304,87509230.76923077,77.51548,1.0,2.0,1.0,1.0,4.0,20.0,,0 days 00:00:00.001000
2023-11-16 12:17:15.173,0.95685476,0.65551984,0.78785396,-3.9846292,0.62915736,0.27144155,0.37795514,-3.728819,0.660911,0.4476976,0.5835523,-3.371572,0.27426437,0.5340369,0.35399884,-3.306395,0.24558893,0.1574944,0.14610739,-3.2321553,770.40295,795.78754,799.011,0.0,1052.0513,0.0,0.0,-0.12762451171875,0.0107421875,0.99639892578125,2.88604736328125,-4.88983154296875,-1.203765869140625,44242564.102564104,118840293.04029304,87509230.76923077,77.51548,1.0,2.0,1.0,1.0,4.0,20.0,,0 days 00:00:00
2023-11-16 12:17:15.174,0.95685476,0.65551984,0.78785396,-3.9846292,0.62915736,0.27144155,0.37795514,-3.728819,0.660911,0.4476976,0.5835523,-3.371572,0.27426437,0.5340369,0.35399884,-3.306395,0.24558893,0.1574944,0.14610739,-3.2321553,795.38464,804.2491,802.6374,0.0,1041.978,0.0,0.0,-0.12762451171875,0.0107421875,0.99639892578125,2.88604736328125,-4.88983154296875,-1.203765869140625,44242564.102564104,118840293.04029304,87509230.76923077,77.51548,1.0,2.0,1.0,1.0,4.0,20.0,,0 days 00:00:00.001000
2023-11-16 12:17:15.174,0.95685476,0.65551984,0.78785396,-3.9846292,0.62915736,0.27144155,0.37795514,-3.728819,0.660911,0.4476976,0.5835523,-3.371572,0.27426437,0.5340369,0.35399884,-3.306395,0.24558893,0.1574944,0.14610739,-3.2321553,784.90845,810.293,803.0403,0.0,704.7253,0.0,0.0,-0.12762451171875,0.0107421875,0.99639892578125,2.88604736328125,-4.88983154296875,-1.203765869140625,44242564.102564104,118840293.04029304,87509230.76923077,77.51548,1.0,2.0,1.0,1.0,4.0,20.0,,0 days 00:00:00
2023-11-16 12:17:15.174,0.95685476,0.65551984,0.78785396,-3.9846292,0.62915736,0.27144155,0.37795514,-3.728819,0.660911,0.4476976,0.5835523,-3.371572,0.27426437,0.5340369,0.35399884,-3.306395,0.24558893,0.1574944,0.14610739,-3.2321553,776.4469,808.68134,814.3223,0.0,759.5238,0.0,0.0,-0.12762451171875,0.0107421875,0.99639892578125,2.88604736328125,-4.88983154296875,-1.203765869140625,44242564.102564104,118840293.04029304,87509230.76923077,77.51548,1.0,2.0,1.0,1.0,4.0,20.0,,0 days 00:00:00
2023-11-16 12:17:15.175,0.95685476,0.65551984,0.78785396,-3.9846292,0.62915736,0.27144155,0.37795514,-3.728819,0.660911,0.4476976,0.5835523,-3.371572,0.27426437,0.5340369,0.35399884,-3.306395,0.24558893,0.1574944,0.14610739,-3.2321553,769.19415,803.0403,807.47253,0.0,869.5238,0.0,0.0,-0.12762451171875,0.0107421875,0.99639892578125,2.88604736328125,-4.88983154296875,-1.203765869140625,44242564.102564104,118840293.04029304,87509230.76923077,77.51548,1.0,2.0,1.0,1.0,4.0,20.0,,0 days 00:00:00.001000
2023-11-16 12:17:15.175,0.95685476,0.65551984,0.78785396,-3.9846292,0.62915736,0.27144155,0.37795514,-3.728819,0.660911,0.4476976,0.5835523,-3.371572,0.27426437,0.5340369,0.35399884,-3.306395,0.24558893,0.1574944,0.14610739,-3.2321553,758.315,806.26373,796.5934,0.0,728.0952,0.0,0.0,-0.12762451171875,0.0107421875,0.99639892578125,2.88604736328125,-4.88983154296875,-1.203765869140625,44242564.102564104,118840293.04029304,87509230.76923077,77.51548,1.0,2.0,1.0,1.0,4.0,20.0,,0 days 00:00:00
2023-11-16 12:17:15.235,0.95685476,0.65551984,0.78785396,-3.9846292,0.62915736,0.27144155,0.37795514,-3.728819,0.660911,0.4476976,0.5835523,-3.371572,0.27426437,0.5340369,0.35399884,-3.306395,0.24558893,0.1574944,0.14610739,-3.2321553,761.9414,803.8461,802.6374,0.0,646.7033,0.0,0.0,-0.115234375,0.0068359375,1.0072021484375,3.058013916015625,-6.4599609375,1.15142822265625,44242564.102564104,118840293.04029304,87509230.76923077,77.51548,1.0,2.0,1.0,1.0,4.0,20.0,,0 days 00:00:00.060000
2023-11-16 12:17:15.235,0.95685476,0.65551984,0.78785396,-3.9846292,0.62915736,0.27144155,0.37795514,-3.728819,0.660911,0.4476976,0.5835523,-3.371572,0.27426437,0.5340369,0.35399884,-3.306395,0.24558893,0.1574944,0.14610739,-3.2321553,759.5238,803.44324,804.2491,0.0,683.7729,0.0,0.0,-0.115234375,0.0068359375,1.0072021484375,3.058013916015625,-6.4599609375,1.15142822265625,44242564.102564104,118840293.04029304,87509230.76923077,77.51548,1.0,2.0,1.0,1.0,4.0,20.0,,0 days 00:00:00
2023-11-16 12:17:15.236,0.95685476,0.65551984,0.78785396,-3.9846292,0.62915736,0.27144155,0.37795514,-3.728819,0.660911,0.4476976,0.5835523,-3.371572,0.27426437,0.5340369,0.35399884,-3.306395,0.24558893,0.1574944,0.14610739,-3.2321553,761.13556,813.5165,805.05493,0.0,703.91943,0.0,0.0,-0.115234375,0.0068359375,1.0072021484375,3.058013916015625,-6.4599609375,1.15142822265625,44242564.102564104,118840293.04029304,87509230.76923077,77.51548,1.0,2.0,1.0,1.0,4.0,20.0,,0 days 00:00:00.001000
2023-11-16 12:17:15.236,0.95685476,0.65551984,0.78785396,-3.9846292,0.62915736,0.27144155,0.37795514,-3.728819,0.660911,0.4476976,0.5835523,-3.371572,0.27426437,0.5340369,0.35399884,-3.306395,0.24558893,0.1574944,0.14610739,-3.2321553,761.9414,810.293,806.26373,0.0,693.8461,0.0,0.0,-0.115234375,0.0068359375,1.0072021484375,3.058013916015625,-6.4599609375,1.15142822265625,44242564.102564104,118840293.04029304,87509230.76923077,77.51548,1.0,2.0,1.0,1.0,4.0,20.0,,0 days 00:00:00
2023-11-16 12:17:15.237,0.95685476,0.65551984,0.78785396,-3.9846292,0.62915736,0.27144155,0.37795514,-3.728819,0.660911,0.4476976,0.5835523,-3.371572,0.27426437,0.5340369,0.35399884,-3.306395,0.24558893,0.1574944,0.14610739,-3.2321553,770.40295,804.2491,810.293,0.0,681.3553,0.0,0.0,-0.115234375,0.0068359375,1.0072021484375,3.058013916015625,-6.4599609375,1.15142822265625,44242564.102564104,118840293.04029304,87509230.76923077,77.51548,1.0,2.0,1.0,1.0,4.0,20.0,,0 days 00:00:00.001000
2023-11-16 12:17:15.237,0.95685476,0.65551984,0.78785396,-3.9846292,0.62915736,0.27144155,0.37795514,-3.728819,0.660911,0.4476976,0.5835523,-3.371572,0.27426437,0.5340369,0.35399884,-3.306395,0.24558893,0.1574944,0.14610739,-3.2321553,775.2381,799.011,814.7253,0.0,813.1135,0.0,0.0,-0.115234375,0.0068359375,1.0072021484375,3.058013916015625,-6.4599609375,1.15142822265625,44242564.102564104,118840293.04029304,87509230.76923077,77.51548,1.0,2.0,1.0,1.0,4.0,20.0,,0 days 00:00:00
2023-11-16 12:17:15.238,0.95685476,0.65551984,0.78785396,-3.9846292,0.62915736,0.27144155,0.37795514,-3.728819,0.660911,0.4476976,0.5835523,-3.371572,0.27426437,0.5340369,0.35399884,-3.306395,0.24558893,0.1574944,0.14610739,-3.2321553,754.68866,796.1905,811.0989,0.0,902.1612,0.0,0.0,-0.115234375,0.0068359375,1.0072021484375,3.058013916015625,-6.4599609375,1.15142822265625,44242564.102564104,118840293.04029304,87509230.76923077,77.51548,1.0,2.0,1.0,1.0,4.0,20.0,,0 days 00:00:00.001000
2023-11-16 12:17:15.238,0.95685476,0.65551984,0.78785396,-3.9846292,0.62915736,0.27144155,0.37795514,-3.728819,0.660911,0.4476976,0.5835523,-3.371572,0.27426437,0.5340369,0.35399884,-3.306395,0.24558893,0.1574944,0.14610739,-3.2321553,743.00366,808.2784,808.68134,0.0,755.89746,0.0,0.0,-0.115234375,0.0068359375,1.0072021484375,3.058013916015625,-6.4599609375,1.15142822265625,44242564.102564104,118840293.04029304,87509230.76923077,77.51548,1.0,2.0,1.0,1.0,4.0,20.0,,0 days 00:00:00
2023-11-16 12:17:15.239,0.95685476,0.65551984,0.78785396,-3.9846292,0.62915736,0.27144155,0.37795514,-3.728819,0.660911,0.4476976,0.5835523,-3.371572,0.27426437,0.5340369,0.35399884,-3.306395,0.24558893,0.1574944,0.14610739,-3.2321553,753.8828,817.1429,812.71063,0.0,693.0403,0.0,0.0,-0.115234375,0.0068359375,1.0072021484375,3.058013916015625,-6.4599609375,1.15142822265625,44242564.102564104,118840293.04029304,87509230.76923077,77.51548,1.0,2.0,1.0,1.0,4.0,20.0,,0 days 00:00:00.001000
2023-11-16 12:17:15.239,0.95685476,0.65551984,0.78785396,-3.9846292,0.62915736,0.27144155,0.37795514,-3.728819,0.660911,0.4476976,0.5835523,-3.371572,0.27426437,0.5340369,0.35399884,-3.306395,0.24558893,0.1574944,0.14610739,-3.2321553,759.92676,811.9048,812.71063,0.0,810.293,0.0,0.0,-0.115234375,0.0068359375,1.0072021484375,3.058013916015625,-6.4599609375,1.15142822265625,44242564.102564104,118840293.04029304,87509230.76923077,77.51548,1.0,2.0,1.0,1.0,4.0,20.0,,0 days 00:00:00
2023-11-16 12:17:15.239,0.95685476,0.65551984,0.78785396,-3.9846292,0.62915736,0.27144155,0.37795514,-3.728819,0.660911,0.4476976,0.5835523,-3.371572,0.27426437,0.5340369,0.35399884,-3.306395,0.24558893,0.1574944,0.14610739,-3.2321553,763.5531,815.12823,807.47253,0.0,818.7546,0.0,0.0,-0.115234375,0.0068359375,1.0072021484375,3.058013916015625,-6.4599609375,1.15142822265625,44242564.102564104,118840293.04029304,87509230.76923077,77.51548,1.0,2.0,1.0,1.0,4.0,20.0,,0 days 00:00:00
2023-11-16 12:17:15.240,0.95685476,0.65551984,0.78785396,-3.9846292,0.62915736,0.27144155,0.37795514,-3.728819,0.660911,0.4476976,0.5835523,-3.371572,0.27426437,0.5340369,0.35399884,-3.306395,0.24558893,0.1574944,0.14610739,-3.2321553,768.7912,819.15753,808.2784,0.0,698.68134,0.0,0.0,-0.115234375,0.0068359375,1.0072021484375,3.058013916015625,-6.4599609375,1.15142822265625,44242564.102564104,118840293.04029304,87509230.76923077,77.51548,1.0,2.0,1.0,1.0,4.0,20.0,,0 days 00:00:00.001000
2023-11-16 12:17:15.276,0.95685476,0.65551984,0.78785396,-3.9846292,0.62915736,0.27144155,0.37795514,-3.728819,0.660911,0.4476976,0.5835523,-3.371572,0.27426437,0.5340369,0.35399884,-3.306395,0.24558893,0.1574944,0.14610739,-3.2321553,765.9707,811.0989,808.68134,0.0,746.63007,0.0,0.0,-0.12664794921875,0.0098876953125,0.99505615234375,2.3028564453125,-6.639404296875,1.03179931640625,43901684.98168498,118735531.13553111,87506813.18681319,77.028244,1.0,2.0,1.0,1.0,4.0,20.0,,0 days 00:00:00.036000
2023-11-16 12:17:15.277,0.95685476,0.65551984,0.78785396,-3.9846292,0.62915736,0.27144155,0.37795514,-3.728819,0.660911,0.4476976,0.5835523,-3.371572,0.27426437,0.5340369,0.35399884,-3.306395,0.24558893,0.1574944,0.14610739,-3.2321553,765.56775,810.293,805.05493,0.0,767.1795,0.0,0.0,-0.12664794921875,0.0098876953125,0.99505615234375,2.3028564453125,-6.639404296875,1.03179931640625,43901684.98168498,118735531.13553111,87506813.18681319,77.028244,1.0,2.0,1.0,1.0,4.0,20.0,,0 days 00:00:00.001000
2023-11-16 12:17:15.277,0.95685476,0.65551984,0.78785396,-3.9846292,0.62915736,0.27144155,0.37795514,-3.728819,0.660911,0.4476976,0.5835523,-3.371572,0.27426437,0.5340369,0.35399884,-3.306395,0.24558893,0.1574944,0.14610739,-3.2321553,755.89746,812.71063,803.0403,0.0,682.5641,0.0,0.0,-0.12664794921875,0.0098876953125,0.99505615234375,2.3028564453125,-6.639404296875,1.03179931640625,43901684.98168498,118735531.13553111,87506813.18681319,77.028244,1.0,2.0,1.0,1.0,4.0,20.0,,0 days 00:00:00
2023-11-16 12:17:15.278,0.95685476,0.63842344,0.68263185,-3.9846292,0.62915736,0.24417984,0.35862887,-3.728819,0.660911,0.43960014,0.5835523,-3.371572,0.27426437,0.5549401,0.3517945,-3.306395,0.24558893,0.16822134,0.16994374,-3.2321553,741.39197,807.47253,798.60803,0.0,672.8938,0.0,0.0,-0.12664794921875,0.0098876953125,0.99505615234375,2.3028564453125,-6.639404296875,1.03179931640625,43901684.98168498,118735531.13553111,87506813.18681319,77.028244,1.0,2.0,1.0,1.0,4.0,20.0,,0 days 00:00:00.001000
2023-11-16 12:17:15.280,0.95685476,0.63842344,0.68263185,-3.9846292,0.62915736,0.24417984,0.35862887,-3.728819,0.660911,0.43960014,0.5835523,-3.371572,0.27426437,0.5549401,0.3517945,-3.306395,0.24558893,0.16822134,0.16994374,-3.2321553,715.2015,791.3553,781.28204,0.0,734.94507,0.0,0.0,-0.12664794921875,0.0098876953125,0.99505615234375,2.3028564453125,-6.639404296875,1.03179931640625,43901684.98168498,118735531.13553111,87506813.18681319,77.028244,1.0,2.0,1.0,1.0,4.0,20.0,,0 days 00:00:00.002000
2023-11-16 12:17:15.280,0.95685476,0.63842344,0.68263185,-3.9846292,0.62915736,0.24417984,0.35862887,-3.728819,0.660911,0.43960014,0.5835523,-3.371572,0.27426437,0.5549401,0.3517945,-3.306395,0.24558893,0.16822134,0.16994374,-3.2321553,705.9341,790.9524,789.34064,0.0,780.4762,0.0,0.0,-0.12664794921875,0.0098876953125,0.99505615234375,2.3028564453125,-6.639404296875,1.03179931640625,43901684.98168498,118735531.13553111,87506813.18681319,77.028244,1.0,2.0,1.0,1.0,4.0,20.0,,0 days 00:00:00
2023-11-16 12:17:15.280,0.95685476,0.63842344,0.68263185,-3.9846292,0.62915736,0.24417984,0.35862887,-3.728819,0.660911,0.43960014,0.5835523,-3.371572,0.27426437,0.5549401,0.3517945,-3.306395,0.24558893,0.16822134,0.16994374,-3.2321553,760.7326,815.9341,811.9048,0.0,796.99634,0.0,0.0,-0.12664794921875,0.0098876953125,0.99505615234375,2.3028564453125,-6.639404296875,1.03179931640625,43901684.98168498,118735531.13553111,87506813.18681319,77.028244,1.0,2.0,1.0,1.0,4.0,20.0,,0 days 00:00:00
2023-11-16 12:17:15.281,0.95685476,0.63842344,0.68263185,-3.9846292,0.62915736,0.24417984,0.35862887,-3.728819,0.660911,0.43960014,0.5835523,-3.371572,0.27426437,0.5549401,0.3517945,-3.306395,0.24558893,0.16822134,0.16994374,-3.2321553,770.80585,817.1429,795.38464,0.0,819.5604,0.0,0.0,-0.12664794921875,0.0098876953125,0.99505615234375,2.3028564453125,-6.639404296875,1.03179931640625,43901684.98168498,118735531.13553111,87506813.18681319,77.028244,1.0,2.0,1.0,1.0,4.0,20.0,,0 days 00:00:00.001000
2023-11-16 12:17:15.281,0.95685476,0.63842344,0.68263185,-3.9846292,0.62915736,0.24417984,0.35862887,-3.728819,0.660911,0.43960014,0.5835523,-3.371572,0.27426437,0.5549401,0.3517945,-3.306395,0.24558893,0.16822134,0.16994374,-3.2321553,753.47986,807.8755,792.1612,0.0,851.79486,0.0,0.0,-0.12664794921875,0.0098876953125,0.99505615234375,2.3028564453125,-6.639404296875,1.03179931640625,43901684.98168498,118735531.13553111,87506813.18681319,77.028244,1.0,2.0,1.0,1.0,4.0,20.0,,0 days 00:00:00
2023-11-16 12:17:15.282,0.95685476,0.63842344,0.68263185,-3.9846292,0.62915736,0.24417984,0.35862887,-3.728819,0.660911,0.43960014,0.5835523,-3.371572,0.27426437,0.5549401,0.3517945,-3.306395,0.24558893,0.16822134,0.16994374,-3.2321553,759.12085,794.57874,799.011,0.0,1038.7546,0.0,0.0,-0.12664794921875,0.0098876953125,0.99505615234375,2.3028564453125,-6.639404296875,1.03179931640625,43901684.98168498,118735531.13553111,87506813.18681319,77.028244,1.0,2.0,1.0,1.0,4.0,20.0,,0 days 00:00:00.001000
2023-11-16 12:17:15.282,0.95685476,0.63842344,0.68263185,-3.9846292,0.62915736,0.24417984,0.35862887,-3.728819,0.660911,0.43960014,0.5835523,-3.371572,0.27426437,0.5549401,0.3517945,-3.306395,0.24558893,0.16822134,0.16994374,-3.2321553,758.71796,801.02563,798.20514,0.0,1043.9927,0.0,0.0,-0.12664794921875,0.0098876953125,0.99505615234375,2.3028564453125,-6.639404296875,1.03179931640625,43901684.98168498,118735531.13553111,87506813.18681319,77.028244,1.0,2.0,1.0,1.0,4.0,20.0,,0 days 00:00:00
2023-11-16 12:17:15.282,0.95685476,0.63842344,0.68263185,-3.9846292,0.62915736,0.24417984,0.35862887,-3.728819,0.660911,0.43960014,0.5835523,-3.371572,0.27426437,0.5549401,0.3517945,-3.306395,0.24558893,0.16822134,0.16994374,-3.2321553,735.34796,809.89014,801.02563,0.0,769.59705,0.0,0.0,-0.12664794921875,0.0098876953125,0.99505615234375,2.3028564453125,-6.639404296875,1.03179931640625,43901684.98168498,118735531.13553111,87506813.18681319,77.028244,1.0,2.0,1.0,1.0,4.0,20.0,,0 days 00:00:00
2023-11-16 12:17:15.317,0.95685476,0.63842344,0.68263185,-3.9846292,0.62915736,0.24417984,0.35862887,-3.728819,0.660911,0.43960014,0.5835523,-3.371572,0.27426437,0.5549401,0.3517945,-3.306395,0.24558893,0.16822134,0.16994374,-3.2321553,714.3956,799.81683,801.02563,0.0,757.50916,0.0,0.0,-0.131103515625,0.0045166015625,1.01239013671875,2.549591064453125,-4.26177978515625,0.276641845703125,43901684.98168498,118735531.13553111,87506813.18681319,77.028244,1.0,2.0,1.0,1.0,4.0,20.0,,0 days 00:00:00.035000
2023-11-16 12:17:15.318,0.95685476,0.63842344,0.68263185,-3.9846292,0.62915736,0.24417984,0.35862887,-3.728819,0.660911,0.43960014,0.5835523,-3.371572,0.27426437,0.5549401,0.3517945,-3.306395,0.24558893,0.16822134,0.16994374,-3.2321553,726.08057,803.8461,798.60803,0.0,742.1978,0.0,0.0,-0.131103515625,0.0045166015625,1.01239013671875,2.549591064453125,-4.26177978515625,0.276641845703125,43901684.98168498,118735531.13553111,87506813.18681319,77.028244,1.0,2.0,1.0,1.0,4.0,20.0,,0 days 00:00:00.001000
2023-11-16 12:17:15.319,0.95685476,0.63842344,0.68263185,-3.9846292,0.62915736,0.24417984,0.35862887,-3.728819,0.660911,0.43960014,0.5835523,-3.371572,0.27426437,0.5549401,0.3517945,-3.306395,0.24558893,0.16822134,0.16994374,-3.2321553,736.9597,809.4872,797.8022,0.0,683.7729,0.0,0.0,-0.131103515625,0.0045166015625,1.01239013671875,2.549591064453125,-4.26177978515625,0.276641845703125,43901684.98168498,118735531.13553111,87506813.18681319,77.028244,1.0,2.0,1.0,1.0,4.0,20.0,,0 days 00:00:00.001000
2023-11-16 12:17:15.319,0.95685476,0.63842344,0.68263185,-3.9846292,0.62915736,0.24417984,0.35862887,-3.728819,0.660911,0.43960014,0.5835523,-3.371572,0.27426437,0.5549401,0.3517945,-3.306395,0.24558893,0.16822134,0.16994374,-3.2321553,748.6447,811.0989,799.81683,0.0,697.47253,0.0,0.0,-0.131103515625,0.0045166015625,1.01239013671875,2.549591064453125,-4.26177978515625,0.276641845703125,43901684.98168498,118735531.13553111,87506813.18681319,77.028244,1.0,2.0,1.0,1.0,4.0,20.0,,0 days 00:00:00
2023-11-16 12:17:15.320,0.95685476,0.63842344,0.68263185,-3.9846292,0.62915736,0.24417984,0.35862887,-3.728819,0.660911,0.43960014,0.5835523,-3.371572,0.27426437,0.5549401,0.3517945,-3.306395,0.24558893,0.16822134,0.16994374,-3.2321553,744.61536,808.2784,804.65204,0.0,733.73627,0.0,0.0,-0.131103515625,0.0045166015625,1.01239013671875,2.549591064453125,-4.26177978515625,0.276641845703125,43901684.98168498,118735531.13553111,87506813.18681319,77.028244,1.0,2.0,1.0,1.0,4.0,20.0,,0 days 00:00:00.001000
2023-11-16 12:17:15.320,0.95685476,0.63842344,0.68263185,-3.9846292,0.62915736,0.24417984,0.35862887,-3.728819,0.660911,0.43960014,0.5835523,-3.371572,0.27426437,0.5549401,0.3517945,-3.306395,0.24558893,0.16822134,0.16994374,-3.2321553,734.5421,798.60803,803.8461,0.0,760.32965,0.0,0.0,-0.131103515625,0.0045166015625,1.01239013671875,2.549591064453125,-4.26177978515625,0.276641845703125,43901684.98168498,118735531.13553111,87506813.18681319,77.028244,1.0,2.0,1.0,1.0,4.0,20.0,,0 days 00:00:00
2023-11-16 12:17:15.321,0.95685476,0.63842344,0.68263185,-3.9846292,0.62915736,0.24417984,0.35862887,-3.728819,0.660911,0.43960014,0.5835523,-3.371572,0.27426437,0.5549401,0.3517945,-3.306395,0.24558893,0.16822134,0.16994374,-3.2321553,750.2564,798.60803,797.3993,0.0,754.2857,0.0,0.0,-0.131103515625,0.0045166015625,1.01239013671875,2.549591064453125,-4.26177978515625,0.276641845703125,43901684.98168498,118735531.13553111,87506813.18681319,77.028244,1.0,2.0,1.0,1.0,4.0,20.0,,0 days 00:00:00.001000
2023-11-16 12:17:15.321,0.95685476,0.63842344,0.68263185,-3.9846292,0.62915736,0.24417984,0.35862887,-3.728819,0.660911,0.43960014,0.5835523,-3.371572,0.27426437,0.5549401,0.3517945,-3.306395,0.24558893,0.16822134,0.16994374,-3.2321553,754.68866,803.44324,788.93774,0.0,643.47986,0.0,0.0,-0.131103515625,0.0045166015625,1.01239013671875,2.549591064453125,-4.26177978515625,0.276641845703125,43901684.98168498,118735531.13553111,87506813.18681319,77.028244,1.0,2.0,1.0,1.0,4.0,20.0,,0 days 00:00:00
2023-11-16 12:17:15.322,0.95685476,0.63842344,0.68263185,-3.9846292,0.62915736,0.24417984,0.35862887,-3.728819,0.660911,0.43960014,0.5835523,-3.371572,0.27426437,0.5549401,0.3517945,-3.306395,0.24558893,0.16822134,0.16994374,-3.2321553,764.7619,802.6374,775.2381,0.0,785.31134,0.0,0.0,-0.131103515625,0.0045166015625,1.01239013671875,2.549591064453125,-4.26177978515625,0.276641845703125,43901684.98168498,118735531.13553111,87506813.18681319,77.028244,1.0,2.0,1.0,1.0,4.0,20.0,,0 days 00:00:00.001000
2023-11-16 12:17:15.322,0.95685476,0.63842344,0.68263185,-3.9846292,0.62915736,0.24417984,0.35862887,-3.728819,0.660911,0.43960014,0.5835523,-3.371572,0.27426437,0.5549401,0.3517945,-3.306395,0.24558893,0.16822134,0.16994374,-3.2321553,790.54944,809.89014,791.75824,1.2087913,890.07324,0.0,0.0,-0.131103515625,0.0045166015625,1.01239013671875,2.549591064453125,-4.26177978515625,0.276641845703125,43901684.98168498,118735531.13553111,87506813.18681319,77.028244,1.0,2.0,1.0,1.0,4.0,20.0,,0 days 00:00:00
2023-11-16 12:17:15.323,0.95685476,0.63842344,0.68263185,-3.9846292,0.62915736,0.24417984,0.35862887,-3.728819,0.660911,0.43960014,0.5835523,-3.371572,0.27426437,0.5549401,0.3517945,-3.306395,0.24558893,0.16822134,0.16994374,-3.2321553,772.01465,812.71063,828.4249,0.0,667.6557,0.0,0.0,-0.131103515625,0.0045166015625,1.01239013671875,2.549591064453125,-4.26177978515625,0.276641845703125,43901684.98168498,118735531.13553111,87506813.18681319,77.028244,1.0,2.0,1.0,1.0,4.0,20.0,,0 days 00:00:00.001000
2023-11-16 12:17:15.323,0.95685476,0.63842344,0.68263185,-3.9846292,0.62915736,0.24417984,0.35862887,-3.728819,0.660911,0.43960014,0.5835523,-3.371572,0.27426437,0.5549401,0.3517945,-3.306395,0.24558893,0.16822134,0.16994374,-3.2321553,764.35895,809.0842,838.9011,3.2234433,695.8608,0.0,0.0,-0.131103515625,0.0045166015625,1.01239013671875,2.549591064453125,-4.26177978515625,0.276641845703125,43901684.98168498,118735531.13553111,87506813.18681319,77.028244,1.0,2.0,1.0,1.0,4.0,20.0,,0 days 00:00:00
2023-11-16 12:17:15.363,0.95685476,0.63842344,0.68263185,-3.9846292,0.62915736,0.24417984,0.35862887,-3.728819,0.660911,0.43960014,0.5835523,-3.371572,0.27426437,0.5549401,0.3517945,-3.306395,0.24558893,0.16822134,0.16994374,-3.2321553,774.0293,796.5934,834.4689,49.56044,765.56775,0.0,0.0,-0.15802001953125,0.00018310546875,1.00335693359375,2.73651123046875,-3.39447021484375,-0.142059326171875,43749377.28937729,118587252.74725276,87532600.73260073,76.6266,1.0,2.0,1.0,1.0,4.0,20.0,,0 days 00:00:00.040000
2023-11-16 12:17:15.363,0.95685476,0.63842344,0.68263185,-3.9846292,0.62915736,0.24417984,0.35862887,-3.728819,0.660911,0.43960014,0.5835523,-3.371572,0.27426437,0.5549401,0.3517945,-3.306395,0.24558893,0.16822134,0.16994374,-3.2321553,749.45056,780.87915,836.4835,93.88278,763.1502,0.0,0.0,-0.15802001953125,0.00018310546875,1.00335693359375,2.73651123046875,-3.39447021484375,-0.142059326171875,43749377.28937729,118587252.74725276,87532600.73260073,76.6266,1.0,2.0,1.0,1.0,4.0,20.0,,0 days 00:00:00
2023-11-16 12:17:15.364,0.95685476,0.63842344,0.68263185,-3.9846292,0.62915736,0.24417984,0.35862887,-3.728819,0.660911,0.43960014,0.5835523,-3.371572,0.27426437,0.5549401,0.3517945,-3.306395,0.24558893,0.16822134,0.16994374,-3.2321553,747.03296,781.685,838.9011,112.01465,730.10986,0.0,0.0,-0.15802001953125,0.00018310546875,1.00335693359375,2.73651123046875,-3.39447021484375,-0.142059326171875,43749377.28937729,118587252.74725276,87532600.73260073,76.6266,1.0,2.0,1.0,1.0,4.0,20.0,,0 days 00:00:00.001000
2023-11-16 12:17:15.364,0.95685476,0.63842344,0.68263185,-3.9846292,0.62915736,0.24417984,0.35862887,-3.728819,0.660911,0.43960014,0.5835523,-3.371572,0.27426437,0.5549401,0.3517945,-3.306395,0.24558893,0.16822134,0.16994374,-3.2321553,757.50916,784.5055,834.87177,143.84616,759.5238,0.0,0.0,-0.15802001953125,0.00018310546875,1.00335693359375,2.73651123046875,-3.39447021484375,-0.142059326171875,43749377.28937729,118587252.74725276,87532600.73260073,76.6266,1.0,2.0,1.0,1.0,4.0,20.0,,0 days 00:00:00
2023-11-16 12:17:15.365,0.95685476,0.63842344,0.68263185,-3.9846292,0.62915736,0.24417984,0.35862887,-3.728819,0.660911,0.43960014,0.5835523,-3.371572,0.27426437,0.5549401,0.3517945,-3.306395,0.24558893,0.16822134,0.16994374,-3.2321553,745.42126,784.90845,837.6923,198.64468,836.8865,0.0,0.0,-0.15802001953125,0.00018310546875,1.00335693359375,2.73651123046875,-3.39447021484375,-0.142059326171875,43749377.28937729,118587252.74725276,87532600.73260073,76.6266,1.0,2.0,1.0,1.0,4.0,20.0,,0 days 00:00:00.001000
2023-11-16 12:17:15.365,0.95685476,0.66196024,0.62878525,-3.9846292,0.62915736,0.27228737,0.4019043,-3.728819,0.660911,0.43888378,0.5835523,-3.371572,0.27426437,0.5845479,0.37665397,-3.306395,0.24558893,0.17527904,0.18732311,-3.2321553,767.98535,789.7436,835.6777,259.08426,751.8681,0.0,0.0,-0.15802001953125,0.00018310546875,1.00335693359375,2.73651123046875,-3.39447021484375,-0.142059326171875,43749377.28937729,118587252.74725276,87532600.73260073,76.6266,1.0,2.0,1.0,1.0,4.0,20.0,,0 days 00:00:00
2023-11-16 12:17:15.367,0.95685476,0.66196024,0.62878525,-3.9846292,0.62915736,0.27228737,0.4019043,-3.728819,0.660911,0.43888378,0.5835523,-3.371572,0.27426437,0.5845479,0.37665397,-3.306395,0.24558893,0.17527904,0.18732311,-3.2321553,777.6557,790.54944,829.6337,338.86447,756.7033,0.0,0.0,-0.15802001953125,0.00018310546875,1.00335693359375,2.73651123046875,-3.39447021484375,-0.142059326171875,43749377.28937729,118587252.74725276,87532600.73260073,76.6266,1.0,2.0,1.0,1.0,4.0,20.0,,0 days 00:00:00.002000
2023-11-16 12:17:15.367,0.95685476,0.66196024,0.62878525,-3.9846292,0.62915736,0.27228737,0.4019043,-3.728819,0.660911,0.43888378,0.5835523,-3.371572,0.27426437,0.5845479,0.37665397,-3.306395,0.24558893,0.17527904,0.18732311,-3.2321553,767.5824,788.1319,828.4249,404.5421,825.2015,0.0,0.0,-0.15802001953125,0.00018310546875,1.00335693359375,2.73651123046875,-3.39447021484375,-0.142059326171875,43749377.28937729,118587252.74725276,87532600.73260073,76.6266,1.0,2.0,1.0,1.0,4.0,20.0,,0 days 00:00:00
2023-11-16 12:17:15.368,0.95685476,0.66196024,0.62878525,-3.9846292,0.62915736,0.27228737,0.4019043,-3.728819,0.660911,0.43888378,0.5835523,-3.371572,0.27426437,0.5845479,0.37665397,-3.306395,0.24558893,0.17527904,0.18732311,-3.2321553,786.52014,783.2967,821.978,492.78387,1014.9817,0.0,0.0,-0.15802001953125,0.00018310546875,1.00335693359375,2.73651123046875,-3.39447021484375,-0.142059326171875,43749377.28937729,118587252.74725276,87532600.73260073,76.6266,1.0,2.0,1.0,1.0,4.0,20.0,,0 days 00:00:00.001000
2023-11-16 12:17:15.368,0.95685476,0.66196024,0.62878525,-3.9846292,0.62915736,0.27228737,0.4019043,-3.728819,0.660911,0.43888378,0.5835523,-3.371572,0.27426437,0.5845479,0.37665397,-3.306395,0.24558893,0.17527904,0.18732311,-3.2321553,774.43225,785.7143,817.9487,541.53845,961.39197,0.0,0.0,-0.15802001953125,0.00018310546875,1.00335693359375,2.73651123046875,-3.39447021484375,-0.142059326171875,43749377.28937729,118587252.74725276,87532600.73260073,76.6266,1.0,2.0,1.0,1.0,4.0,20.0,,0 days 00:00:00
2023-11-16 12:17:15.368,0.95685476,0.66196024,0.62878525,-3.9846292,0.62915736,0.27228737,0.4019043,-3.728819,0.660911,0.43888378,0.5835523,-3.371572,0.27426437,0.5845479,0.37665397,-3.306395,0.24558893,0.17527904,0.18732311,-3.2321553,766.3736,788.1319,825.2015,562.49084,716.0073,0.0,0.0,-0.15802001953125,0.00018310546875,1.00335693359375,2.73651123046875,-3.39447021484375,-0.142059326171875,43749377.28937729,118587252.74725276,87532600.73260073,76.6266,1.0,2.0,1.0,1.0,4.0,20.0,,0 days 00:00:00
2023-11-16 12:17:15.369,0.95685476,0.66196024,0.62878525,-3.9846292,0.62915736,0.27228737,0.4019043,-3.728819,0.660911,0.43888378,0.5835523,-3.371572,0.27426437,0.5845479,0.37665397,-3.306395,0.24558893,0.17527904,0.18732311,-3.2321553,774.43225,790.14655,825.2015,610.84247,762.3443,0.0,0.0,-0.15802001953125,0.00018310546875,1.00335693359375,2.73651123046875,-3.39447021484375,-0.142059326171875,43749377.28937729,118587252.74725276,87532600.73260073,76.6266,1.0,2.0,1.0,1.0,4.0,20.0,,0 days 00:00:00.001000
2023-11-16 12:17:15.397,0.95685476,0.66196024,0.62878525,-3.9846292,0.62915736,0.27228737,0.4019043,-3.728819,0.660911,0.43888378,0.5835523,-3.371572,0.27426437,0.5845479,0.37665397,-3.306395,0.24558893,0.17527904,0.18732311,-3.2321553,785.31134,794.9817,820.3663,649.92676,754.2857,0.0,0.0,-0.15802001953125,0.00018310546875,1.00335693359375,2.73651123046875,-3.39447021484375,-0.142059326171875,43749377.28937729,118587252.74725276,87532600.73260073,76.6266,1.0,2.0,1.0,1.0,4.0,20.0,,0 days 00:00:00.028000
2023-11-16 12:17:15.398,0.95685476,0.66196024,0.62878525,-3.9846292,0.62915736,0.27228737,0.4019043,-3.728819,0.660911,0.43888378,0.5835523,-3.371572,0.27426437,0.5845479,0.37665397,-3.306395,0.24558893,0.17527904,0.18732311,-3.2321553,795.38464,794.57874,821.1722,740.18317,787.72894,0.0,0.0,-0.15802001953125,0.00018310546875,1.00335693359375,2.73651123046875,-3.39447021484375,-0.142059326171875,43749377.28937729,118587252.74725276,87532600.73260073,76.6266,1.0,2.0,1.0,1.0,4.0,20.0,,0 days 00:00:00.001000
2023-11-16 12:17:15.398,0.95685476,0.66196024,0.62878525,-3.9846292,0.62915736,0.27228737,0.4019043,-3.728819,0.660911,0.43888378,0.5835523,-3.371572,0.27426437,0.5845479,0.37665397,-3.306395,0.24558893,0.17527904,0.18732311,-3.2321553,791.3553,793.36993,822.381,813.91943,829.6337,0.0,0.0,-0.15802001953125,0.00018310546875,1.00335693359375,2.73651123046875,-3.39447021484375,-0.142059326171875,43749377.28937729,118587252.74725276,87532600.73260073,76.6266,1.0,2.0,1.0,1.0,4.0,20.0,,0 days 00:00:00
2023-11-16 12:17:15.399,0.95685476,0.66196024,0.62878525,-3.9846292,0.62915736,0.27228737,0.4019043,-3.728819,0.660911,0.43888378,0.5835523,-3.371572,0.27426437,0.5845479,0.37665397,-3.306395,0.24558893,0.17527904,0.18732311,-3.2321553,803.8461,797.8022,817.9487,859.45056,800.6227,0.0,0.0,-0.15802001953125,0.00018310546875,1.00335693359375,2.73651123046875,-3.39447021484375,-0.142059326171875,43749377.28937729,118587252.74725276,87532600.73260073,76.6266,1.0,2.0,1.0,1.0,4.0,20.0,,0 days 00:00:00.001000
2023-11-16 12:17:15.399,0.95685476,0.66196024,0.62878525,-3.9846292,0.62915736,0.27228737,0.4019043,-3.728819,0.660911,0.43888378,0.5835523,-3.371572,0.27426437,0.5845479,0.37665397,-3.306395,0.24558893,0.17527904,0.18732311,-3.2321553,795.78754,787.72894,803.44324,912.6374,835.6777,0.0,0.0,-0.15802001953125,0.00018310546875,1.00335693359375,2.73651123046875,-3.39447021484375,-0.142059326171875,43749377.28937729,118587252.74725276,87532600.73260073,76.6266,1.0,2.0,1.0,1.0,4.0,20.0,,0 days 00:00:00
2023-11-16 12:17:15.399,0.95685476,0.66196024,0.62878525,-3.9846292,0.62915736,0.27228737,0.4019043,-3.728819,0.660911,0.43888378,0.5835523,-3.371572,0.27426437,0.5845479,0.37665397,-3.306395,0.24558893,0.17527904,0.18732311,-3.2321553,780.4762,777.6557,803.44324,936.4103,804.2491,0.0,0.0,-0.15802001953125,0.00018310546875,1.00335693359375,2.73651123046875,-3.39447021484375,-0.142059326171875,43749377.28937729,118587252.74725276,87532600.73260073,76.6266,1.0,2.0,1.0,1.0,4.0,20.0,,0 days 00:00:00
2023-11-16 12:17:15.400,0.95685476,0.66196024,0.62878525,-3.9846292,0.62915736,0.27228737,0.4019043,-3.728819,0.660911,0.43888378,0.5835523,-3.371572,0.27426437,0.5845479,0.37665397,-3.306395,0.24558893,0.17527904,0.18732311,-3.2321553,795.38464,788.93774,815.12823,1007.72894,770.40295,0.0,0.0,-0.15802001953125,0.00018310546875,1.00335693359375,2.73651123046875,-3.39447021484375,-0.142059326171875,43749377.28937729,118587252.74725276,87532600.73260073,76.6266,1.0,2.0,1.0,1.0,4.0,20.0,,0 days 00:00:00.001000
2023-11-16 12:17:15.400,0.95685476,0.66196024,0.62878525,-3.9846292,0.62915736,0.27228737,0.4019043,-3.728819,0.660911,0.43888378,0.5835523,-3.371572,0.27426437,0.5845479,0.37665397,-3.306395,0.24558893,0.17527904,0.18732311,-3.2321553,807.0696,786.52014,811.50183,1102.4176,953.73627,0.0,0.0,-0.15802001953125,0.00018310546875,1.00335693359375,2.73651123046875,-3.39447021484375,-0.142059326171875,43749377.28937729,118587252.74725276,87532600.73260073,76.6266,1.0,2.0,1.0,1.0,4.0,20.0,,0 days 00:00:00
2023-11-16 12:17:15.401,0.95685476,0.66196024,0.62878525,-3.9846292,0.62915736,0.27228737,0.4019043,-3.728819,0.660911,0.43888378,0.5835523,-3.371572,0.27426437,0.5845479,0.37665397,-3.306395,0.24558893,0.17527904,0.18732311,-3.2321553,809.89014,781.685,809.0842,1142.7106,1082.2711,0.0,0.0,-0.15802001953125,0.00018310546875,1.00335693359375,2.73651123046875,-3.39447021484375,-0.142059326171875,43749377.28937729,118587252.74725276,87532600.73260073,76.6266,1.0,2.0,1.0,1.0,4.0,20.0,,0 days 00:00:00.001000
2023-11-16 12:17:15.401,0.95685476,0.66196024,0.62878525,-3.9846292,0.62915736,0.27228737,0.4019043,-3.728819,0.660911,0.43888378,0.5835523,-3.371572,0.27426437,0.5845479,0.37665397,-3.306395,0.24558893,0.17527904,0.18732311,-3.2321553,784.90845,791.75824,812.71063,1111.2821,823.5897,0.0,0.0,-0.15802001953125,0.00018310546875,1.00335693359375,2.73651123046875,-3.39447021484375,-0.142059326171875,43749377.28937729,118587252.74725276,87532600.73260073,76.6266,1.0,2.0,1.0,1.0,4.0,20.0,,0 days 00:00:00
2023-11-16 12:17:15.401,0.95685476,0.66196024,0.62878525,-3.9846292,0.62915736,0.27228737,0.4019043,-3.728819,0.660911,0.43888378,0.5835523,-3.371572,0.27426437,0.5845479,0.37665397,-3.306395,0.24558893,0.17527904,0.18732311,-3.2321553,791.3553,796.5934,813.5165,1145.9341,712.381,0.0,0.0,-0.15802001953125,0.00018310546875,1.00335693359375,2.73651123046875,-3.39447021484375,-0.142059326171875,43749377.28937729,118587252.74725276,87532600.73260073,76.6266,1.0,2.0,1.0,1.0,4.0,20.0,,0 days 00:00:00
2023-11-16 12:17:15.402,0.95685476,0.66196024,0.62878525,-3.9846292,0.62915736,0.27228737,0.4019043,-3.728819,0.660911,0.43888378,0.5835523,-3.371572,0.27426437,0.5845479,0.37665397,-3.306395,0.24558893,0.17527904,0.18732311,-3.2321553,813.91943,792.96704,808.2784,1197.5092,785.7143,0.0,0.0,-0.15802001953125,0.00018310546875,1.00335693359375,2.73651123046875,-3.39447021484375,-0.142059326171875,43749377.28937729,118587252.74725276,87532600.73260073,76.6266,1.0,2.0,1.0,1.0,4.0,20.0,,0 days 00:00:00.001000
2023-11-16 12:17:15.428,0.95685476,0.66196024,0.62878525,-3.9846292,0.62915736,0.27228737,0.4019043,-3.728819,0.660911,0.43888378,0.5835523,-3.371572,0.27426437,0.5845479,0.37665397,-3.306395,0.24558893,0.17527904,0.18732311,-3.2321553,800.2198,794.57874,805.05493,1209.1941,778.0586,0.0,0.0,-0.1302490234375,0.003662109375,0.99993896484375,2.87109375,-0.171966552734375,-1.114044189453125,43951648.35164835,118488131.86813186,87456043.95604396,76.30385,1.0,2.0,1.0,1.0,4.0,20.0,,0 days 00:00:00.026000
2023-11-16 12:17:15.428,0.95685476,0.66196024,0.62878525,-3.9846292,0.62915736,0.27228737,0.4019043,-3.728819,0.660911,0.43888378,0.5835523,-3.371572,0.27426437,0.5845479,0.37665397,-3.306395,0.24558893,0.17527904,0.18732311,-3.2321553,807.8755,799.41394,812.71063,1250.2931,719.2308,0.0,0.0,-0.1302490234375,0.003662109375,0.99993896484375,2.87109375,-0.171966552734375,-1.114044189453125,43951648.35164835,118488131.86813186,87456043.95604396,76.30385,1.0,2.0,1.0,1.0,4.0,20.0,,0 days 00:00:00
2023-11-16 12:17:15.429,0.95685476,0.66196024,0.62878525,-3.9846292,0.62915736,0.27228737,0.4019043,-3.728819,0.660911,0.43888378,0.5835523,-3.371572,0.27426437,0.5845479,0.37665397,-3.306395,0.24558893,0.17527904,0.18732311,-3.2321553,801.02563,792.96704,810.293,1315.9707,745.42126,0.0,0.0,-0.1302490234375,0.003662109375,0.99993896484375,2.87109375,-0.171966552734375,-1.114044189453125,43951648.35164835,118488131.86813186,87456043.95604396,76.30385,1.0,2.0,1.0,1.0,4.0,20.0,,0 days 00:00:00.001000
2023-11-16 12:17:15.429,0.95685476,0.66196024,0.62878525,-3.9846292,0.62915736,0.27228737,0.4019043,-3.728819,0.660911,0.43888378,0.5835523,-3.371572,0.27426437,0.5845479,0.37665397,-3.306395,0.24558893,0.17527904,0.18732311,-3.2321553,805.4579,791.3553,803.44324,1348.2051,821.978,0.0,0.0,-0.1302490234375,0.003662109375,0.99993896484375,2.87109375,-0.171966552734375,-1.114044189453125,43951648.35164835,118488131.86813186,87456043.95604396,76.30385,1.0,2.0,1.0,1.0,4.0,20.0,,0 days 00:00:00
2023-11-16 12:17:15.430,0.95685476,0.66196024,0.62878525,-3.9846292,0.62915736,0.27228737,0.4019043,-3.728819,0.660911,0.43888378,0.5835523,-3.371572,0.27426437,0.5845479,0.37665397,-3.306395,0.24558893,0.17527904,0.18732311,-3.2321553,822.7839,802.23444,807.47253,1363.9194,832.8571,0.0,0.0,-0.1302490234375,0.003662109375,0.99993896484375,2.87109375,-0.171966552734375,-1.114044189453125,43951648.35164835,118488131.86813186,87456043.95604396,76.30385,1.0,2.0,1.0,1.0,4.0,20.0,,0 days 00:00:00.001000
2023-11-16 12:17:15.430,0.95685476,0.66196024,0.62878525,-3.9846292,0.62915736,0.27228737,0.4019043,-3.728819,0.660911,0.43888378,0.5835523,-3.371572,0.27426437,0.5845479,0.37665397,-3.306395,0.24558893,0.17527904,0.18732311,-3.2321553,817.9487,803.8461,803.44324,1364.3224,836.08057,0.0,0.0,-0.1302490234375,0.003662109375,0.99993896484375,2.87109375,-0.171966552734375,-1.114044189453125,43951648.35164835,118488131.86813186,87456043.95604396,76.30385,1.0,2.0,1.0,1.0,4.0,20.0,,0 days 00:00:00
2023-11-16 12:17:15.430,0.95685476,0.66196024,0.62878525,-3.9846292,0.62915736,0.27228737,0.4019043,-3.728819,0.660911,0.43888378,0.5835523,-3.371572,0.27426437,0.5845479,0.37665397,-3.306395,0.24558893,0.17527904,0.18732311,-3.2321553,802.6374,793.36993,801.4286,1372.381,858.24176,0.0,0.0,-0.1302490234375,0.003662109375,0.99993896484375,2.87109375,-0.171966552734375,-1.114044189453125,43951648.35164835,118488131.86813186,87456043.95604396,76.30385,1.0,2.0,1.0,1.0,4.0,20.0,,0 days 00:00:00
2023-11-16 12:17:15.431,0.95685476,0.71759474,0.6142053,-3.9846292,0.62915736,0.33725205,0.4774187,-3.728819,0.660911,0.43778005,0.5835523,-3.371572,0.27426437,0.6150901,0.42804107,-3.306395,0.24558893,0.15946235,0.20234676,-3.2321553,794.17584,790.14655,801.02563,1412.674,1086.3004,0.0,0.0,-0.1302490234375,0.003662109375,0.99993896484375,2.87109375,-0.171966552734375,-1.114044189453125,43951648.35164835,118488131.86813186,87456043.95604396,76.30385,1.0,2.0,1.0,1.0,4.0,20.0,,0 days 00:00:00.001000
2023-11-16 12:17:15.432,0.95685476,0.71759474,0.6142053,-3.9846292,0.62915736,0.33725205,0.4774187,-3.728819,0.660911,0.43778005,0.5835523,-3.371572,0.27426437,0.6150901,0.42804107,-3.306395,0.24558893,0.15946235,0.20234676,-3.2321553,797.8022,790.54944,790.54944,1381.6483,1141.5018,0.0,0.0,-0.1302490234375,0.003662109375,0.99993896484375,2.87109375,-0.171966552734375,-1.114044189453125,43951648.35164835,118488131.86813186,87456043.95604396,76.30385,1.0,2.0,1.0,1.0,4.0,20.0,,0 days 00:00:00.001000
2023-11-16 12:17:15.433,0.95685476,0.71759474,0.6142053,-3.9846292,0.62915736,0.33725205,0.4774187,-3.728819,0.660911,0.43778005,0.5835523,-3.371572,0.27426437,0.6150901,0.42804107,-3.306395,0.24558893,0.15946235,0.20234676,-3.2321553,790.9524,795.38464,793.36993,1261.1721,920.293,0.0,0.0,-0.1302490234375,0.003662109375,0.99993896484375,2.87109375,-0.171966552734375,-1.114044189453125,43951648.35164835,118488131.86813186,87456043.95604396,76.30385,1.0,2.0,1.0,1.0,4.0,20.0,,0 days 00:00:00.001000
2023-11-16 12:17:15.433,0.95685476,0.71759474,0.6142053,-3.9846292,0.62915736,0.33725205,0.4774187,-3.728819,0.660911,0.43778005,0.5835523,-3.371572,0.27426437,0.6150901,0.42804107,-3.306395,0.24558893,0.15946235,0.20234676,-3.2321553,801.02563,805.4579,820.3663,1207.9854,944.4689,0.0,0.0,-0.1302490234375,0.003662109375,0.99993896484375,2.87109375,-0.171966552734375,-1.114044189453125,43951648.35164835,118488131.86813186,87456043.95604396,76.30385,1.0,2.0,1.0,1.0,4.0,20.0,,0 days 00:00:00
2023-11-16 12:17:15.433,0.95685476,0.71759474,0.6142053,-3.9846292,0.62915736,0.33725205,0.4774187,-3.728819,0.660911,0.43778005,0.5835523,-3.371572,0.27426437,0.6150901,0.42804107,-3.306395,0.24558893,0.15946235,0.20234676,-3.2321553,808.68134,807.0696,816.7399,1165.6776,973.0769,0.0,0.0,-0.1302490234375,0.003662109375,0.99993896484375,2.87109375,-0.171966552734375,-1.114044189453125,43951648.35164835,118488131.86813186,87456043.95604396,76.30385,1.0,2.0,1.0,1.0,4.0,20.0,,0 days 00:00:00
2023-11-16 12:17:15.500,0.95685476,0.71759474,0.6142053,-3.9846292,0.62915736,0.33725205,0.4774187,-3.728819,0.660911,0.43778005,0.5835523,-3.371572,0.27426437,0.6150901,0.42804107,-3.306395,0.24558893,0.15946235,0.20234676,-3.2321553,797.3993,811.50183,801.02563,1068.9744,778.46155,0.0,0.0,-0.11407470703125,0.0030517578125,1.00689697265625,2.519683837890625,-4.000091552734375,1.27105712890625,43951648.35164835,118488131.86813186,87456043.95604396,76.30385,1.0,2.0,1.0,1.0,4.0,20.0,,0 days 00:00:00.067000
2023-11-16 12:17:15.501,0.95685476,0.71759474,0.6142053,-3.9846292,0.62915736,0.33725205,0.4774187,-3.728819,0.660911,0.43778005,0.5835523,-3.371572,0.27426437,0.6150901,0.42804107,-3.306395,0.24558893,0.15946235,0.20234676,-3.2321553,797.3993,806.6667,797.3993,1028.2784,749.45056,0.0,0.0,-0.11407470703125,0.0030517578125,1.00689697265625,2.519683837890625,-4.000091552734375,1.27105712890625,43951648.35164835,118488131.86813186,87456043.95604396,76.30385,1.0,2.0,1.0,1.0,4.0,20.0,,0 days 00:00:00.001000
2023-11-16 12:17:15.502,0.95685476,0.71759474,0.6142053,-3.9846292,0.62915736,0.33725205,0.4774187,-3.728819,0.660911,0.43778005,0.5835523,-3.371572,0.27426437,0.6150901,0.42804107,-3.306395,0.24558893,0.15946235,0.20234676,-3.2321553,790.9524,805.4579,803.0403,1007.326,809.0842,0.0,0.0,-0.11407470703125,0.0030517578125,1.00689697265625,2.519683837890625,-4.000091552734375,1.27105712890625,43951648.35164835,118488131.86813186,87456043.95604396,76.30385,1.0,2.0,1.0,1.0,4.0,20.0,,0 days 00:00:00.001000
2023-11-16 12:17:15.502,0.95685476,0.71759474,0.6142053,-3.9846292,0.62915736,0.33725205,0.4774187,-3.728819,0.660911,0.43778005,0.5835523,-3.371572,0.27426437,0.6150901,0.42804107,-3.306395,0.24558893,0.15946235,0.20234676,-3.2321553,800.6227,810.696,817.9487,1016.5934,784.90845,0.0,0.0,-0.11407470703125,0.0030517578125,1.00689697265625,2.519683837890625,-4.000091552734375,1.27105712890625,43951648.35164835,118488131.86813186,87456043.95604396,76.30385,1.0,2.0,1.0,1.0,4.0,20.0,,0 days 00:00:00
2023-11-16 12:17:15.503,0.95685476,0.71759474,0.6142053,-3.9846292,0.62915736,0.33725205,0.4774187,-3.728819,0.660911,0.43778005,0.5835523,-3.371572,0.27426437,0.6150901,0.42804107,-3.306395,0.24558893,0.15946235,0.20234676,-3.2321553,809.0842,809.4872,809.0842,1017.8022,758.315,0.0,0.0,-0.11407470703125,0.0030517578125,1.00689697265625,2.519683837890625,-4.000091552734375,1.27105712890625,43951648.35164835,118488131.86813186,87456043.95604396,76.30385,1.0,2.0,1.0,1.0,4.0,20.0,,0 days 00:00:00.001000
2023-11-16 12:17:15.503,0.95685476,0.71759474,0.6142053,-3.9846292,0.62915736,0.33725205,0.4774187,-3.728819,0.660911,0.43778005,0.5835523,-3.371572,0.27426437,0.6150901,0.42804107,-3.306395,0.24558893,0.15946235,0.20234676,-3.2321553,810.293,808.68134,792.96704,1011.75824,762.74725,0.0,0.0,-0.11407470703125,0.0030517578125,1.00689697265625,2.519683837890625,-4.000091552734375,1.27105712890625,43951648.35164835,118488131.86813186,87456043.95604396,76.30385,1.0,2.0,1.0,1.0,4.0,20.0,,0 days 00:00:00
2023-11-16 12:17:15.504,0.95685476,0.71759474,0.6142053,-3.9846292,0.62915736,0.33725205,0.4774187,-3.728819,0.660911,0.43778005,0.5835523,-3.371572,0.27426437,0.6150901,0.42804107,-3.306395,0.24558893,0.15946235,0.20234676,-3.2321553,820.7692,795.38464,800.2198,1113.2968,1003.69965,0.0,0.0,-0.11407470703125,0.0030517578125,1.00689697265625,2.519683837890625,-4.000091552734375,1.27105712890625,43951648.35164835,118488131.86813186,87456043.95604396,76.30385,1.0,2.0,1.0,1.0,4.0,20.0,,0 days 00:00:00.001000
2023-11-16 12:17:15.504,0.95685476,0.71759474,0.6142053,-3.9846292,0.62915736,0.33725205,0.4774187,-3.728819,0.660911,0.43778005,0.5835523,-3.371572,0.27426437,0.6150901,0.42804107,-3.306395,0.24558893,0.15946235,0.20234676,-3.2321553,800.2198,790.54944,801.4286,1135.4579,1085.0916,0.0,0.0,-0.11407470703125,0.0030517578125,1.00689697265625,2.519683837890625,-4.000091552734375,1.27105712890625,43951648.35164835,118488131.86813186,87456043.95604396,76.30385,1.0,2.0,1.0,1.0,4.0,20.0,,0 days 00:00:00
2023-11-16 12:17:15.505,0.95685476,0.71759474,0.6142053,-3.9846292,0.62915736,0.33725205,0.4774187,-3.728819,0.660911,0.43778005,0.5835523,-3.371572,0.27426437,0.6150901,0.42804107,-3.306395,0.24558893,0.15946235,0.20234676,-3.2321553,803.8461,801.02563,790.9524,1014.9817,724.0659,0.0,0.0,-0.11407470703125,0.0030517578125,1.00689697265625,2.519683837890625,-4.000091552734375,1.27105712890625,43951648.35164835,118488131.86813186,87456043.95604396,76.30385,1.0,2.0,1.0,1.0,4.0,20.0,,0 days 00:00:00.001000
2023-11-16 12:17:15.505,0.95685476,0.71759474,0.6142053,-3.9846292,0.62915736,0.33725205,0.4774187,-3.728819,0.660911,0.43778005,0.5835523,-3.371572,0.27426437,0.6150901,0.42804107,-3.306395,0.24558893,0.15946235,0.20234676,-3.2321553,818.7546,799.41394,797.3993,971.06226,626.1539,0.0,0.0,-0.11407470703125,0.0030517578125,1.00689697265625,2.519683837890625,-4.000091552734375,1.27105712890625,43951648.35164835,118488131.86813186,87456043.95604396,76.30385,1.0,2.0,1.0,1.0,4.0,20.0,,0 days 00:00:00
2023-11-16 12:17:15.506,0.95685476,0.71759474,0.6142053,-3.9846292,0.62915736,0.33725205,0.4774187,-3.728819,0.660911,0.43778005,0.5835523,-3.371572,0.27426437,0.6150901,0.42804107,-3.306395,0.24558893,0.15946235,0.20234676,-3.2321553,808.68134,797.3993,797.3993,981.9414,745.82416,0.0,0.0,-0.11407470703125,0.0030517578125,1.00689697265625,2.519683837890625,-4.000091552734375,1.27105712890625,43951648.35164835,118488131.86813186,87456043.95604396,76.30385,1.0,2.0,1.0,1.0,4.0,20.0,,0 days 00:00:00.001000
2023-11-16 12:17:15.506,0.95685476,0.71759474,0.6142053,-3.9846292,0.62915736,0.33725205,0.4774187,-3.728819,0.660911,0.43778005,0.5835523,-3.371572,0.27426437,0.6150901,0.42804107,-3.306395,0.24558893,0.15946235,0.20234676,-3.2321553,801.8315,801.8315,793.7729,908.20514,737.3626,0.0,0.0,-0.11407470703125,0.0030517578125,1.00689697265625,2.519683837890625,-4.000091552734375,1.27105712890625,43951648.35164835,118488131.86813186,87456043.95604396,76.30385,1.0,2.0,1.0,1.0,4.0,20.0,,0 days 00:00:00
2023-11-16 12:17:15.539,0.95685476,0.71759474,0.6142053,-3.9846292,0.62915736,0.33725205,0.4774187,-3.728819,0.660911,0.43778005,0.5835523,-3.371572,0.27426437,0.6150901,0.42804107,-3.306395,0.24558893,0.15946235,0.20234676,-3.2321553,807.0696,803.8461,804.65204,828.8278,663.6264,0.0,0.0,-0.10284423828125,0.010986328125,1.02386474609375,3.401947021484375,-4.762725830078125,0.112152099609375,44051575.09157509,118367252.74725276,87476996.33699633,75.999985,1.0,2.0,1.0,1.0,4.0,20.0,,0 days 00:00:00.033000
2023-11-16 12:17:15.539,0.95685476,0.71759474,0.6142053,-3.9846292,0.62915736,0.33725205,0.4774187,-3.728819,0.660911,0.43778005,0.5835523,-3.371572,0.27426437,0.6150901,0.42804107,-3.306395,0.24558893,0.15946235,0.20234676,-3.2321553,798.60803,802.23444,809.89014,818.7546,711.1722,0.0,0.0,-0.10284423828125,0.010986328125,1.02386474609375,3.401947021484375,-4.762725830078125,0.112152099609375,44051575.09157509,118367252.74725276,87476996.33699633,75.999985,1.0,2.0,1.0,1.0,4.0,20.0,,0 days 00:00:00
2023-11-16 12:17:15.540,0.95685476,0.71759474,0.6142053,-3.9846292,0.62915736,0.33725205,0.4774187,-3.728819,0.660911,0.43778005,0.5835523,-3.371572,0.27426437,0.6150901,0.42804107,-3.306395,0.24558893,0.15946235,0.20234676,-3.2321553,807.47253,794.9817,803.0403,816.7399,786.52014,0.0,0.0,-0.10284423828125,0.010986328125,1.02386474609375,3.401947021484375,-4.762725830078125,0.112152099609375,44051575.09157509,118367252.74725276,87476996.33699633,75.999985,1.0,2.0,1.0,1.0,4.0,20.0,,0 days 00:00:00.001000
2023-11-16 12:17:15.540,0.95685476,0.71759474,0.6142053,-3.9846292,0.62915736,0.33725205,0.4774187,-3.728819,0.660911,0.43778005,0.5835523,-3.371572,0.27426437,0.6150901,0.42804107,-3.306395,0.24558893,0.15946235,0.20234676,-3.2321553,815.9341,792.5641,794.9817,754.68866,696.26373,0.0,0.0,-0.10284423828125,0.010986328125,1.02386474609375,3.401947021484375,-4.762725830078125,0.112152099609375,44051575.09157509,118367252.74725276,87476996.33699633,75.999985,1.0,2.0,1.0,1.0,4.0,20.0,,0 days 00:00:00
2023-11-16 12:17:15.541,0.95685476,0.71759474,0.6142053,-3.9846292,0.62915736,0.33725205,0.4774187,-3.728819,0.660911,0.43778005,0.5835523,-3.371572,0.27426437,0.6150901,0.42804107,-3.306395,0.24558893,0.15946235,0.20234676,-3.2321553,804.65204,794.17584,799.41394,709.5604,664.83514,0.0,0.0,-0.10284423828125,0.010986328125,1.02386474609375,3.401947021484375,-4.762725830078125,0.112152099609375,44051575.09157509,118367252.74725276,87476996.33699633,75.999985,1.0,2.0,1.0,1.0,4.0,20.0,,0 days 00:00:00.001000
2023-11-16 12:17:15.541,0.95685476,0.71759474,0.6142053,-3.9846292,0.62915736,0.33725205,0.4774187,-3.728819,0.660911,0.43778005,0.5835523,-3.371572,0.27426437,0.6150901,0.42804107,-3.306395,0.24558893,0.15946235,0.20234676,-3.2321553,782.0879,783.2967,803.44324,720.0366,750.2564,0.0,0.0,-0.10284423828125,0.010986328125,1.02386474609375,3.401947021484375,-4.762725830078125,0.112152099609375,44051575.09157509,118367252.74725276,87476996.33699633,75.999985,1.0,2.0,1.0,1.0,4.0,20.0,,0 days 00:00:00
2023-11-16 12:17:15.542,0.95685476,0.71759474,0.6142053,-3.9846292,0.62915736,0.33725205,0.4774187,-3.728819,0.660911,0.43778005,0.5835523,-3.371572,0.27426437,0.6150901,0.42804107,-3.306395,0.24558893,0.15946235,0.20234676,-3.2321553,784.10254,788.1319,808.2784,702.3077,756.30035,0.0,0.0,-0.10284423828125,0.010986328125,1.02386474609375,3.401947021484375,-4.762725830078125,0.112152099609375,44051575.09157509,118367252.74725276,87476996.33699633,75.999985,1.0,2.0,1.0,1.0,4.0,20.0,,0 days 00:00:00.001000
2023-11-16 12:17:15.542,0.95685476,0.71759474,0.6142053,-3.9846292,0.62915736,0.33725205,0.4774187,-3.728819,0.660911,0.43778005,0.5835523,-3.371572,0.27426437,0.6150901,0.42804107,-3.306395,0.24558893,0.15946235,0.20234676,-3.2321553,820.7692,802.23444,809.4872,718.8278,785.31134,0.0,0.0,-0.10284423828125,0.010986328125,1.02386474609375,3.401947021484375,-4.762725830078125,0.112152099609375,44051575.09157509,118367252.74725276,87476996.33699633,75.999985,1.0,2.0,1.0,1.0,4.0,20.0,,0 days 00:00:00
2023-11-16 12:17:15.543,0.95685476,0.71759474,0.6142053,-3.9846292,0.62915736,0.33725205,0.4774187,-3.728819,0.660911,0.43778005,0.5835523,-3.371572,0.27426437,0.6150901,0.42804107,-3.306395,0.24558893,0.15946235,0.20234676,-3.2321553,814.7253,799.81683,805.4579,737.76556,798.20514,0.0,0.0,-0.10284423828125,0.010986328125,1.02386474609375,3.401947021484375,-4.762725830078125,0.112152099609375,44051575.09157509,118367252.74725276,87476996.33699633,75.999985,1.0,2.0,1.0,1.0,4.0,20.0,,0 days 00:00:00.001000
2023-11-16 12:17:15.543,0.95685476,0.71759474,0.6142053,-3.9846292,0.62915736,0.33725205,0.4774187,-3.728819,0.660911,0.43778005,0.5835523,-3.371572,0.27426437,0.6150901,0.42804107,-3.306395,0.24558893,0.15946235,0.20234676,-3.2321553,799.011,800.2198,805.05493,731.7216,759.5238,0.0,0.0,-0.10284423828125,0.010986328125,1.02386474609375,3.401947021484375,-4.762725830078125,0.112152099609375,44051575.09157509,118367252.74725276,87476996.33699633,75.999985,1.0,2.0,1.0,1.0,4.0,20.0,,0 days 00:00:00
2023-11-16 12:17:15.545,0.95685476,0.71759474,0.6142053,-3.9846292,0.62915736,0.33725205,0.4774187,-3.728819,0.660911,0.43778005,0.5835523,-3.371572,0.27426437,0.6150901,0.42804107,-3.306395,0.24558893,0.15946235,0.20234676,-3.2321553,813.5165,792.5641,805.4579,812.71063,952.52747,0.0,0.0,-0.10284423828125,0.010986328125,1.02386474609375,3.401947021484375,-4.762725830078125,0.112152099609375,44051575.09157509,118367252.74725276,87476996.33699633,75.999985,1.0,2.0,1.0,1.0,4.0,20.0,,0 days 00:00:00.002000
2023-11-16 12:17:15.546,0.95685476,0.71759474,0.6142053,-3.9846292,0.62915736,0.33725205,0.4774187,-3.728819,0.660911,0.43778005,0.5835523,-3.371572,0.27426437,0.6150901,0.42804107,-3.306395,0.24558893,0.15946235,0.20234676,-3.2321553,813.5165,794.9817,800.2198,843.73627,910.6227,0.0,0.0,-0.10284423828125,0.010986328125,1.02386474609375,3.401947021484375,-4.762725830078125,0.112152099609375,44051575.09157509,118367252.74725276,87476996.33699633,75.999985,1.0,2.0,1.0,1.0,4.0,20.0,,0 days 00:00:00.001000
2023-11-16 12:17:15.613,0.95685476,0.71759474,0.6142053,-3.9846292,0.62915736,0.33725205,0.4774187,-3.728819,0.660911,0.43778005,0.5835523,-3.371572,0.27426437,0.6150901,0.42804107,-3.306395,0.24558893,0.15946235,0.20234676,-3.2321553,788.5348,794.9817,799.41394,847.3626,726.4835,0.0,0.0,-0.12469482421875,0.0167236328125,1.00128173828125,3.9178466796875,-4.42626953125,0.64300537109375,44051575.09157509,118367252.74725276,87476996.33699633,75.999985,1.0,2.0,1.0,1.0,4.0,20.0,,0 days 00:00:00.067000
2023-11-16 12:17:15.614,0.95685476,0.71759474,0.6142053,-3.9846292,0.62915736,0.33725205,0.4774187,-3.728819,0.660911,0.43778005,0.5835523,-3.371572,0.27426437,0.6150901,0.42804107,-3.306395,0.24558893,0.15946235,0.20234676,-3.2321553,793.7729,793.36993,796.5934,974.2857,868.71796,0.0,0.0,-0.12469482421875,0.0167236328125,1.00128173828125,3.9178466796875,-4.42626953125,0.64300537109375,44051575.09157509,118367252.74725276,87476996.33699633,75.999985,1.0,2.0,1.0,1.0,4.0,20.0,,0 days 00:00:00.001000
2023-11-16 12:17:15.615,0.95685476,0.71759474,0.6142053,-3.9846292,0.62915736,0.33725205,0.4774187,-3.728819,0.660911,0.43778005,0.5835523,-3.371572,0.27426437,0.6150901,0.42804107,-3.306395,0.24558893,0.15946235,0.20234676,-3.2321553,784.10254,793.7729,791.3553,1025.8608,869.92676,0.0,0.0,-0.12469482421875,0.0167236328125,1.00128173828125,3.9178466796875,-4.42626953125,0.64300537109375,44051575.09157509,118367252.74725276,87476996.33699633,75.999985,1.0,2.0,1.0,1.0,4.0,20.0,,0 days 00:00:00.001000
2023-11-16 12:17:15.615,0.95685476,0.71759474,0.6142053,-3.9846292,0.62915736,0.33725205,0.4774187,-3.728819,0.660911,0.43778005,0.5835523,-3.371572,0.27426437,0.6150901,0.42804107,-3.306395,0.24558893,0.15946235,0.20234676,-3.2321553,774.43225,803.0403,806.6667,1031.9048,770.0,0.0,0.0,-0.12469482421875,0.0167236328125,1.00128173828125,3.9178466796875,-4.42626953125,0.64300537109375,44051575.09157509,118367252.74725276,87476996.33699633,75.999985,1.0,2.0,1.0,1.0,4.0,20.0,,0 days 00:00:00
2023-11-16 12:17:15.616,0.95685476,0.71759474,0.6142053,-3.9846292,0.62915736,0.33725205,0.4774187,-3.728819,0.660911,0.43778005,0.5835523,-3.371572,0.27426437,0.6150901,0.42804107,-3.306395,0.24558893,0.15946235,0.20234676,-3.2321553,789.7436,809.4872,817.5458,1108.0586,774.83514,0.0,0.0,-0.12469482421875,0.0167236328125,1.00128173828125,3.9178466796875,-4.42626953125,0.64300537109375,44051575.09157509,118367252.74725276,87476996.33699633,75.999985,1.0,2.0,1.0,1.0,4.0,20.0,,0 days 00:00:00.001000
2023-11-16 12:17:15.616,0.95685476,0.71759474,0.6142053,-3.9846292,0.62915736,0.33725205,0.4774187,-3.728819,0.660911,0.43778005,0.5835523,-3.371572,0.27426437,0.6150901,0.42804107,-3.306395,0.24558893,0.15946235,0.20234676,-3.2321553,790.14655,795.78754,800.2198,1200.3297,869.5238,0.0,0.0,-0.12469482421875,0.0167236328125,1.00128173828125,3.9178466796875,-4.42626953125,0.64300537109375,44051575.09157509,118367252.74725276,87476996.33699633,75.999985,1.0,2.0,1.0,1.0,4.0,20.0,,0 days 00:00:00
2023-11-16 12:17:15.617,0.95685476,0.71759474,0.6142053,-3.9846292,0.62915736,0.33725205,0.4774187,-3.728819,0.660911,0.43778005,0.5835523,-3.371572,0.27426437,0.6150901,0.42804107,-3.306395,0.24558893,0.15946235,0.20234676,-3.2321553,782.49084,791.3553,788.1319,1256.337,952.52747,0.0,0.0,-0.12469482421875,0.0167236328125,1.00128173828125,3.9178466796875,-4.42626953125,0.64300537109375,44051575.09157509,118367252.74725276,87476996.33699633,75.999985,1.0,2.0,1.0,1.0,4.0,20.0,,0 days 00:00:00.001000
2023-11-16 12:17:15.617,0.95685476,0.71759474,0.6142053,-3.9846292,0.62915736,0.33725205,0.4774187,-3.728819,0.660911,0.43778005,0.5835523,-3.371572,0.27426437,0.6150901,0.42804107,-3.306395,0.24558893,0.15946235,0.20234676,-3.2321553,791.75824,802.6374,794.57874,1209.597,778.0586,0.0,0.0,-0.12469482421875,0.0167236328125,1.00128173828125,3.9178466796875,-4.42626953125,0.64300537109375,44051575.09157509,118367252.74725276,87476996.33699633,75.999985,1.0,2.0,1.0,1.0,4.0,20.0,,0 days 00:00:00
2023-11-16 12:17:15.618,0.95685476,0.71759474,0.6142053,-3.9846292,0.62915736,0.33725205,0.4774187,-3.728819,0.660911,0.43778005,0.5835523,-3.371572,0.27426437,0.6150901,0.42804107,-3.306395,0.24558893,0.15946235,0.20234676,-3.2321553,794.9817,805.8608,796.1905,1205.1648,713.5897,0.0,0.0,-0.12469482421875,0.0167236328125,1.00128173828125,3.9178466796875,-4.42626953125,0.64300537109375,44051575.09157509,118367252.74725276,87476996.33699633,75.999985,1.0,2.0,1.0,1.0,4.0,20.0,,0 days 00:00:00.001000
2023-11-16 12:17:15.618,0.95685476,0.71759474,0.6142053,-3.9846292,0.62915736,0.33725205,0.4774187,-3.728819,0.660911,0.43778005,0.5835523,-3.371572,0.27426437,0.6150901,0.42804107,-3.306395,0.24558893,0.15946235,0.20234676,-3.2321553,795.78754,799.41394,798.20514,1259.9634,853.00366,0.0,0.0,-0.12469482421875,0.0167236328125,1.00128173828125,3.9178466796875,-4.42626953125,0.64300537109375,44051575.09157509,118367252.74725276,87476996.33699633,75.999985,1.0,2.0,1.0,1.0,4.0,20.0,,0 days 00:00:00
2023-11-16 12:17:15.619,0.95685476,0.71759474,0.6142053,-3.9846292,0.62915736,0.33725205,0.4774187,-3.728819,0.660911,0.43778005,0.5835523,-3.371572,0.27426437,0.6150901,0.42804107,-3.306395,0.24558893,0.15946235,0.20234676,-3.2321553,795.38464,801.4286,803.0403,1301.0623,852.1978,0.0,0.0,-0.12469482421875,0.0167236328125,1.00128173828125,3.9178466796875,-4.42626953125,0.64300537109375,44051575.09157509,118367252.74725276,87476996.33699633,75.999985,1.0,2.0,1.0,1.0,4.0,20.0,,0 days 00:00:00.001000
2023-11-16 12:17:15.619,0.95685476,0.71759474,0.6142053,-3.9846292,0.62915736,0.33725205,0.4774187,-3.728819,0.660911,0.43778005,0.5835523,-3.371572,0.27426437,0.6150901,0.42804107,-3.306395,0.24558893,0.15946235,0.20234676,-3.2321553,795.78754,807.0696,802.6374,1328.0586,746.63007,0.0,0.0,-0.12469482421875,0.0167236328125,1.00128173828125,3.9178466796875,-4.42626953125,0.64300537109375,44051575.09157509,118367252.74725276,87476996.33699633,75.999985,1.0,2.0,1.0,1.0,4.0,20.0,,0 days 00:00:00
2023-11-16 12:17:15.642,0.95685476,0.71759474,0.6142053,-3.9846292,0.62915736,0.33725205,0.4774187,-3.728819,0.660911,0.43778005,0.5835523,-3.371572,0.27426437,0.6150901,0.42804107,-3.306395,0.24558893,0.15946235,0.20234676,-3.2321553,798.60803,803.0403,799.81683,1396.9597,772.4176,0.0,0.0,-0.12469482421875,0.0167236328125,1.00128173828125,3.9178466796875,-4.42626953125,0.64300537109375,44016117.21611722,118373699.63369964,87411721.6117216,75.7139,1.0,2.0,1.0,1.0,4.0,20.0,,0 days 00:00:00.023000
2023-11-16 12:17:15.643,0.95685476,0.71759474,0.6142053,-3.9846292,0.62915736,0.33725205,0.4774187,-3.728819,0.660911,0.43778005,0.5835523,-3.371572,0.27426437,0.6150901,0.42804107,-3.306395,0.24558893,0.15946235,0.20234676,-3.2321553,780.87915,799.81683,796.5934,1475.1282,852.6007,0.0,0.0,-0.12469482421875,0.0167236328125,1.00128173828125,3.9178466796875,-4.42626953125,0.64300537109375,44016117.21611722,118373699.63369964,87411721.6117216,75.7139,1.0,2.0,1.0,1.0,4.0,20.0,,0 days 00:00:00.001000
2023-11-16 12:17:15.643,0.95685476,0.71759474,0.6142053,-3.9846292,0.62915736,0.33725205,0.4774187,-3.728819,0.660911,0.43778005,0.5835523,-3.371572,0.27426437,0.6150901,0.42804107,-3.306395,0.24558893,0.15946235,0.20234676,-3.2321553,780.07324,798.60803,791.75824,1514.2124,857.03296,0.0,0.0,-0.12469482421875,0.0167236328125,1.00128173828125,3.9178466796875,-4.42626953125,0.64300537109375,44016117.21611722,118373699.63369964,87411721.6117216,75.7139,1.0,2.0,1.0,1.0,4.0,20.0,,0 days 00:00:00
2023-11-16 12:17:15.644,0.95685476,0.71759474,0.6142053,-3.9846292,0.62915736,0.33725205,0.4774187,-3.728819,0.660911,0.43778005,0.5835523,-3.371572,0.27426437,0.6150901,0.42804107,-3.306395,0.24558893,0.15946235,0.20234676,-3.2321553,782.49084,792.5641,792.96704,1535.5677,770.40295,0.0,0.0,-0.12469482421875,0.0167236328125,1.00128173828125,3.9178466796875,-4.42626953125,0.64300537109375,44016117.21611722,118373699.63369964,87411721.6117216,75.7139,1.0,2.0,1.0,1.0,4.0,20.0,,0 days 00:00:00.001000
2023-11-16 12:17:15.644,0.95685476,0.71759474,0.6142053,-3.9846292,0.62915736,0.33725205,0.4774187,-3.728819,0.660911,0.43778005,0.5835523,-3.371572,0.27426437,0.6150901,0.42804107,-3.306395,0.24558893,0.15946235,0.20234676,-3.2321553,795.78754,792.5641,800.6227,1586.337,821.978,0.0,0.0,-0.12469482421875,0.0167236328125,1.00128173828125,3.9178466796875,-4.42626953125,0.64300537109375,44016117.21611722,118373699.63369964,87411721.6117216,75.7139,1.0,2.0,1.0,1.0,4.0,20.0,,0 days 00:00:00
2023-11-16 12:17:15.644,0.95685476,0.71759474,0.6142053,-3.9846292,0.62915736,0.33725205,0.4774187,-3.728819,0.660911,0.43778005,0.5835523,-3.371572,0.27426437,0.6150901,0.42804107,-3.306395,0.24558893,0.15946235,0.20234676,-3.2321553,809.89014,796.5934,798.60803,1624.2124,897.326,0.0,0.0,-0.12469482421875,0.0167236328125,1.00128173828125,3.9178466796875,-4.42626953125,0.64300537109375,44016117.21611722,118373699.63369964,87411721.6117216,75.7139,1.0,2.0,1.0,1.0,4.0,20.0,,0 days 00:00:00
2023-11-16 12:17:15.645,0.95685476,0.71759474,0.6142053,-3.9846292,0.62915736,0.33725205,0.4774187,-3.728819,0.660911,0.43778005,0.5835523,-3.371572,0.27426437,0.6150901,0.42804107,-3.306395,0.24558893,0.15946235,0.20234676,-3.2321553,808.68134,797.3993,792.5641,1623.8096,833.663,0.0,0.0,-0.12469482421875,0.0167236328125,1.00128173828125,3.9178466796875,-4.42626953125,0.64300537109375,44016117.21611722,118373699.63369964,87411721.6117216,75.7139,1.0,2.0,1.0,1.0,4.0,20.0,,0 days 00:00:00.001000
2023-11-16 12:17:15.645,0.95685476,0.71759474,0.6142053,-3.9846292,0.62915736,0.33725205,0.4774187,-3.728819,0.660911,0.43778005,0.5835523,-3.371572,0.27426437,0.6150901,0.42804107,-3.306395,0.24558893,0.15946235,0.20234676,-3.2321553,801.8315,798.60803,798.60803,1623.4066,892.49084,0.0,0.0,-0.12469482421875,0.0167236328125,1.00128173828125,3.9178466796875,-4.42626953125,0.64300537109375,44016117.21611722,118373699.63369964,87411721.6117216,75.7139,1.0,2.0,1.0,1.0,4.0,20.0,,0 days 00:00:00
2023-11-16 12:17:15.645,0.95685476,0.71759474,0.6142053,-3.9846292,0.62915736,0.33725205,0.4774187,-3.728819,0.660911,0.43778005,0.5835523,-3.371572,0.27426437,0.6150901,0.42804107,-3.306395,0.24558893,0.15946235,0.20234676,-3.2321553,801.02563,799.81683,801.02563,1623.8096,1004.90845,0.0,0.0,-0.12469482421875,0.0167236328125,1.00128173828125,3.9178466796875,-4.42626953125,0.64300537109375,44016117.21611722,118373699.63369964,87411721.6117216,75.7139,1.0,2.0,1.0,1.0,4.0,20.0,,0 days 00:00:00
2023-11-16 12:17:15.646,0.95685476,0.71759474,0.6142053,-3.9846292,0.62915736,0.33725205,0.4774187,-3.728819,0.660911,0.43778005,0.5835523,-3.371572,0.27426437,0.6150901,0.42804107,-3.306395,0.24558893,0.15946235,0.20234676,-3.2321553,815.5311,793.36993,797.8022,1623.8096,1166.0806,0.0,0.0,-0.12469482421875,0.0167236328125,1.00128173828125,3.9178466796875,-4.42626953125,0.64300537109375,44016117.21611722,118373699.63369964,87411721.6117216,75.7139,1.0,2.0,1.0,1.0,4.0,20.0,,0 days 00:00:00.001000
2023-11-16 12:17:15.646,0.95685476,0.71759474,0.6142053,-3.9846292,0.62915736,0.33725205,0.4774187,-3.728819,0.660911,0.43778005,0.5835523,-3.371572,0.27426437,0.6150901,0.42804107,-3.306395,0.24558893,0.15946235,0.20234676,-3.2321553,812.3077,801.4286,799.011,1624.2124,1046.4103,0.0,0.0,-0.12469482421875,0.0167236328125,1.00128173828125,3.9178466796875,-4.42626953125,0.64300537109375,44016117.21611722,118373699.63369964,87411721.6117216,75.7139,1.0,2.0,1.0,1.0,4.0,20.0,,0 days 00:00:00
2023-11-16 12:17:15.646,0.95685476,0.71759474,0.6142053,-3.9846292,0.62915736,0.33725205,0.4774187,-3.728819,0.660911,0.43778005,0.5835523,-3.371572,0.27426437,0.6150901,0.42804107,-3.306395,0.24558893,0.15946235,0.20234676,-3.2321553,800.6227,805.8608,796.1905,1576.6666,745.42126,0.0,0.0,-0.12469482421875,0.0167236328125,1.00128173828125,3.9178466796875,-4.42626953125,0.64300537109375,44016117.21611722,118373699.63369964,87411721.6117216,75.7139,1.0,2.0,1.0,1.0,4.0,20.0,,0 days 00:00:00
2023-11-16 12:17:15.676,0.95685476,0.71759474,0.6142053,-3.9846292,0.62915736,0.33725205,0.4774187,-3.728819,0.660911,0.43778005,0.5835523,-3.371572,0.27426437,0.6150901,0.42804107,-3.306395,0.24558893,0.15946235,0.20234676,-3.2321553,802.6374,798.60803,792.1612,1537.1794,779.2674,0.0,0.0,-0.139892578125,0.021484375,0.989501953125,2.61688232421875,-4.74029541015625,0.67291259765625,44016117.21611722,118373699.63369964,87411721.6117216,75.7139,1.0,2.0,1.0,1.0,4.0,20.0,,0 days 00:00:00.030000
2023-11-16 12:17:15.677,0.95685476,0.71759474,0.6142053,-3.9846292,0.62915736,0.33725205,0.4774187,-3.728819,0.660911,0.43778005,0.5835523,-3.371572,0.27426437,0.6150901,0.42804107,-3.306395,0.24558893,0.15946235,0.20234676,-3.2321553,801.02563,795.38464,791.75824,1521.0623,785.31134,0.0,0.0,-0.139892578125,0.021484375,0.989501953125,2.61688232421875,-4.74029541015625,0.67291259765625,44016117.21611722,118373699.63369964,87411721.6117216,75.7139,1.0,2.0,1.0,1.0,4.0,20.0,,0 days 00:00:00.001000
2023-11-16 12:17:15.677,0.95685476,0.71759474,0.6142053,-3.9846292,0.62915736,0.33725205,0.4774187,-3.728819,0.660911,0.43778005,0.5835523,-3.371572,0.27426437,0.6150901,0.42804107,-3.306395,0.24558893,0.15946235,0.20234676,-3.2321553,803.44324,800.6227,802.6374,1488.4249,679.34064,0.0,0.0,-0.139892578125,0.021484375,0.989501953125,2.61688232421875,-4.74029541015625,0.67291259765625,44016117.21611722,118373699.63369964,87411721.6117216,75.7139,1.0,2.0,1.0,1.0,4.0,20.0,,0 days 00:00:00
2023-11-16 12:17:15.677,0.95685476,0.71759474,0.6142053,-3.9846292,0.62915736,0.33725205,0.4774187,-3.728819,0.660911,0.43778005,0.5835523,-3.371572,0.27426437,0.6150901,0.42804107,-3.306395,0.24558893,0.15946235,0.20234676,-3.2321553,819.15753,809.0842,805.05493,1468.2784,653.95605,0.0,0.0,-0.139892578125,0.021484375,0.989501953125,2.61688232421875,-4.74029541015625,0.67291259765625,44016117.21611722,118373699.63369964,87411721.6117216,75.7139,1.0,2.0,1.0,1.0,4.0,20.0,,0 days 00:00:00
2023-11-16 12:17:15.678,0.95685476,0.71759474,0.6142053,-3.9846292,0.62915736,0.33725205,0.4774187,-3.728819,0.660911,0.43778005,0.5835523,-3.371572,0.27426437,0.6150901,0.42804107,-3.306395,0.24558893,0.15946235,0.20234676,-3.2321553,812.71063,807.8755,801.8315,1496.8865,788.93774,0.0,0.0,-0.139892578125,0.021484375,0.989501953125,2.61688232421875,-4.74029541015625,0.67291259765625,44016117.21611722,118373699.63369964,87411721.6117216,75.7139,1.0,2.0,1.0,1.0,4.0,20.0,,0 days 00:00:00.001000
2023-11-16 12:17:15.678,0.95685476,0.71759474,0.6142053,-3.9846292,0.62915736,0.33725205,0.4774187,-3.728819,0.660911,0.43778005,0.5835523,-3.371572,0.27426437,0.6150901,0.42804107,-3.306395,0.24558893,0.15946235,0.20234676,-3.2321553,805.05493,805.05493,801.4286,1545.238,843.3333,0.0,0.0,-0.139892578125,0.021484375,0.989501953125,2.61688232421875,-4.74029541015625,0.67291259765625,44016117.21611722,118373699.63369964,87411721.6117216,75.7139,1.0,2.0,1.0,1.0,4.0,20.0,,0 days 00:00:00
2023-11-16 12:17:15.678,0.95685476,0.71759474,0.6142053,-3.9846292,0.62915736,0.33725205,0.4774187,-3.728819,0.660911,0.43778005,0.5835523,-3.371572,0.27426437,0.6150901,0.42804107,-3.306395,0.24558893,0.15946235,0.20234676,-3.2321553,805.05493,799.81683,801.8315,1569.011,813.91943,0.0,0.0,-0.139892578125,0.021484375,0.989501953125,2.61688232421875,-4.74029541015625,0.67291259765625,44016117.21611722,118373699.63369964,87411721.6117216,75.7139,1.0,2.0,1.0,1.0,4.0,20.0,,0 days 00:00:00
2023-11-16 12:17:15.679,0.95685476,0.71759474,0.6142053,-3.9846292,0.62915736,0.33725205,0.4774187,-3.728819,0.660911,0.43778005,0.5835523,-3.371572,0.27426437,0.6150901,0.42804107,-3.306395,0.24558893,0.15946235,0.20234676,-3.2321553,795.38464,797.3993,811.50183,1576.6666,782.49084,0.0,0.0,-0.139892578125,0.021484375,0.989501953125,2.61688232421875,-4.74029541015625,0.67291259765625,44016117.21611722,118373699.63369964,87411721.6117216,75.7139,1.0,2.0,1.0,1.0,4.0,20.0,,0 days 00:00:00.001000
2023-11-16 12:17:15.679,0.95685476,0.71759474,0.6142053,-3.9846292,0.62915736,0.33725205,0.4774187,-3.728819,0.660911,0.43778005,0.5835523,-3.371572,0.27426437,0.6150901,0.42804107,-3.306395,0.24558893,0.15946235,0.20234676,-3.2321553,805.8608,795.38464,815.9341,1592.7839,871.9414,0.0,0.0,-0.139892578125,0.021484375,0.989501953125,2.61688232421875,-4.74029541015625,0.67291259765625,44016117.21611722,118373699.63369964,87411721.6117216,75.7139,1.0,2.0,1.0,1.0,4.0,20.0,,0 days 00:00:00
2023-11-16 12:17:15.679,0.95685476,0.71759474,0.6142053,-3.9846292,0.62915736,0.33725205,0.4774187,-3.728819,0.660911,0.43778005,0.5835523,-3.371572,0.27426437,0.6150901,0.42804107,-3.306395,0.24558893,0.15946235,0.20234676,-3.2321553,816.337,802.23444,807.0696,1626.63,1033.1135,0.0,0.0,-0.139892578125,0.021484375,0.989501953125,2.61688232421875,-4.74029541015625,0.67291259765625,44016117.21611722,118373699.63369964,87411721.6117216,75.7139,1.0,2.0,1.0,1.0,4.0,20.0,,0 days 00:00:00
2023-11-16 12:17:15.679,0.95685476,0.71759474,0.6142053,-3.9846292,0.62915736,0.33725205,0.4774187,-3.728819,0.660911,0.43778005,0.5835523,-3.371572,0.27426437,0.6150901,0.42804107,-3.306395,0.24558893,0.15946235,0.20234676,-3.2321553,801.4286,813.5165,800.2198,1624.6154,842.52747,0.0,0.0,-0.139892578125,0.021484375,0.989501953125,2.61688232421875,-4.74029541015625,0.67291259765625,44016117.21611722,118373699.63369964,87411721.6117216,75.7139,1.0,2.0,1.0,1.0,4.0,20.0,,0 days 00:00:00
