TimeStamp,Delta_TP9,Delta_AF7,Delta_AF8,Delta_TP10,Theta_TP9,Theta_AF7,Theta_AF8,Theta_TP10,Alpha_TP9,Alpha_AF7,Alpha_AF8,Alpha_TP10,Beta_TP9,Beta_AF7,Beta_AF8,Beta_TP10,Gamma_TP9,Gamma_AF7,Gamma_AF8,Gamma_TP10,RAW_TP9,RAW_AF7,RAW_AF8,RAW_TP10,AUX_RIGHT,Mellow,Concentration,Accelerometer_X,Accelerometer_Y,Accelerometer_Z,Gyro_X,Gyro_Y,Gyro_Z,PPG_Ambient,PPG_IR,PPG_Red,Heart_Rate,HeadBandOn,HSI_TP9,HSI_AF7,HSI_AF8,HSI_TP10,Battery,Elements,TimeDifference
2023-11-16 11:40:52.733,0.52334934,0.0,0.89287347,0.77919364,0.6748557,0.0,0.07190574,0.75401217,0.62674916,0.0,0.037626386,1.0180469,0.8832697,0.0,0.103676036,1.083353,0.79818213,0.0,-0.06631935,0.84825534,629.7802,718.4249,818.7546,612.8571,668.0586,0.0,0.0,0.2156982421875,0.0679931640625,0.953857421875,4.583282470703125,-8.62823486328125,0.261688232421875,13645641.025641026,100506959.70695972,37463663.003663,70.09482,1.0,1.0,4.0,1.0,1.0,40.0,,0 days 00:00:00.032000
2023-11-16 11:40:52.734,0.52334934,0.0,0.89287347,0.77919364,0.6748557,0.0,0.07190574,0.75401217,0.62674916,0.0,0.037626386,1.0180469,0.8832697,0.0,0.103676036,1.083353,0.79818213,0.0,-0.06631935,0.84825534,619.707,523.4066,819.5604,605.2015,710.3663,0.0,0.0,0.2156982421875,0.0679931640625,0.953857421875,4.583282470703125,-8.62823486328125,0.261688232421875,13645641.025641026,100506959.70695972,37463663.003663,70.09482,1.0,1.0,4.0,1.0,1.0,40.0,,0 days 00:00:00.001000
2023-11-16 11:40:52.734,0.52334934,0.0,0.89287347,0.77919364,0.6748557,0.0,0.07190574,0.75401217,0.62674916,0.0,0.037626386,1.0180469,0.8832697,0.0,0.103676036,1.083353,0.79818213,0.0,-0.06631935,0.84825534,596.337,567.326,820.3663,608.4249,707.9487,0.0,0.0,0.2156982421875,0.0679931640625,0.953857421875,4.583282470703125,-8.62823486328125,0.261688232421875,13645641.025641026,100506959.70695972,37463663.003663,70.09482,1.0,1.0,4.0,1.0,1.0,40.0,,0 days 00:00:00
2023-11-16 11:40:52.735,0.52334934,0.0,0.89287347,0.77919364,0.6748557,0.0,0.07190574,0.75401217,0.62674916,0.0,0.037626386,1.0180469,0.8832697,0.0,0.103676036,1.083353,0.79818213,0.0,-0.06631935,0.84825534,602.7839,713.1868,820.3663,617.28937,659.19415,0.0,0.0,0.2156982421875,0.0679931640625,0.953857421875,4.583282470703125,-8.62823486328125,0.261688232421875,13645641.025641026,100506959.70695972,37463663.003663,70.09482,1.0,1.0,4.0,1.0,1.0,40.0,,0 days 00:00:00.001000
2023-11-16 11:40:52.735,0.52334934,0.0,0.89287347,0.77919364,0.6748557,0.0,0.07190574,0.75401217,0.62674916,0.0,0.037626386,1.0180469,0.8832697,0.0,0.103676036,1.083353,0.79818213,0.0,-0.06631935,0.84825534,601.978,606.0073,821.1722,628.97437,641.4652,0.0,0.0,0.2156982421875,0.0679931640625,0.953857421875,4.583282470703125,-8.62823486328125,0.261688232421875,13645641.025641026,100506959.70695972,37463663.003663,70.09482,1.0,1.0,4.0,1.0,1.0,40.0,,0 days 00:00:00
2023-11-16 11:40:52.736,0.52334934,0.0,0.89287347,0.77919364,0.6748557,0.0,0.07190574,0.75401217,0.62674916,0.0,0.037626386,1.0180469,0.8832697,0.0,0.103676036,1.083353,0.79818213,0.0,-0.06631935,0.84825534,594.7253,230.4762,828.022,610.0366,724.4689,0.0,0.0,0.2156982421875,0.0679931640625,0.953857421875,4.583282470703125,-8.62823486328125,0.261688232421875,13645641.025641026,100506959.70695972,37463663.003663,70.09482,1.0,1.0,4.0,1.0,1.0,40.0,,0 days 00:00:00.001000
2023-11-16 11:40:52.736,0.52334934,0.0,0.89287347,0.77919364,0.6748557,0.0,0.07190574,0.75401217,0.62674916,0.0,0.037626386,1.0180469,0.8832697,0.0,0.103676036,1.083353,0.79818213,0.0,-0.06631935,0.84825534,611.6484,197.03297,823.5897,591.9048,788.93774,0.0,0.0,0.2156982421875,0.0679931640625,0.953857421875,4.583282470703125,-8.62823486328125,0.261688232421875,13645641.025641026,100506959.70695972,37463663.003663,70.09482,1.0,1.0,4.0,1.0,1.0,40.0,,0 days 00:00:00
2023-11-16 11:40:52.737,0.52334934,0.0,0.89287347,0.77919364,0.6748557,0.0,0.07190574,0.75401217,0.62674916,0.0,0.037626386,1.0180469,0.8832697,0.0,0.103676036,1.083353,0.79818213,0.0,-0.06631935,0.84825534,604.3956,506.0806,814.3223,607.2161,821.5751,0.0,0.0,0.2156982421875,0.0679931640625,0.953857421875,4.583282470703125,-8.62823486328125,0.261688232421875,13645641.025641026,100506959.70695972,37463663.003663,70.09482,1.0,1.0,4.0,1.0,1.0,40.0,,0 days 00:00:00.001000
2023-11-16 11:40:52.737,0.52334934,0.0,0.89287347,0.77919364,0.6748557,0.0,0.07190574,0.75401217,0.62674916,0.0,0.037626386,1.0180469,0.8832697,0.0,0.103676036,1.083353,0.79818213,0.0,-0.06631935,0.84825534,614.87177,437.58243,816.337,644.68866,816.7399,0.0,0.0,0.2156982421875,0.0679931640625,0.953857421875,4.583282470703125,-8.62823486328125,0.261688232421875,13645641.025641026,100506959.70695972,37463663.003663,70.09482,1.0,1.0,4.0,1.0,1.0,40.0,,0 days 00:00:00
2023-11-16 11:40:52.737,0.52334934,0.0,0.89287347,0.77919364,0.6748557,0.0,0.07190574,0.75401217,0.62674916,0.0,0.037626386,1.0180469,0.8832697,0.0,0.103676036,1.083353,0.79818213,0.0,-0.06631935,0.84825534,647.1062,27.802198,827.2161,659.59705,963.00366,0.0,0.0,0.2156982421875,0.0679931640625,0.953857421875,4.583282470703125,-8.62823486328125,0.261688232421875,13645641.025641026,100506959.70695972,37463663.003663,70.09482,1.0,1.0,4.0,1.0,1.0,40.0,,0 days 00:00:00
2023-11-16 11:40:52.738,0.52334934,0.0,0.89287347,0.77919364,0.6748557,0.0,0.07190574,0.75401217,0.62674916,0.0,0.037626386,1.0180469,0.8832697,0.0,0.103676036,1.083353,0.79818213,0.0,-0.06631935,0.84825534,610.4396,197.03297,825.6044,618.0952,953.73627,0.0,0.0,0.2156982421875,0.0679931640625,0.953857421875,4.583282470703125,-8.62823486328125,0.261688232421875,13645641.025641026,100506959.70695972,37463663.003663,70.09482,1.0,1.0,4.0,1.0,1.0,40.0,,0 days 00:00:00.001000
2023-11-16 11:40:52.738,0.52334934,0.0,0.89287347,0.77919364,0.6748557,0.0,0.07190574,0.75401217,0.62674916,0.0,0.037626386,1.0180469,0.8832697,0.0,0.103676036,1.083353,0.79818213,0.0,-0.06631935,0.84825534,611.2454,669.67035,820.3663,593.91943,708.3516,0.0,0.0,0.2156982421875,0.0679931640625,0.953857421875,4.583282470703125,-8.62823486328125,0.261688232421875,13645641.025641026,100506959.70695972,37463663.003663,70.09482,1.0,1.0,4.0,1.0,1.0,40.0,,0 days 00:00:00
2023-11-16 11:40:52.767,0.52334934,0.0,0.89287347,0.77919364,0.6748557,0.0,0.07190574,0.75401217,0.62674916,0.0,0.037626386,1.0180469,0.8832697,0.0,0.103676036,1.083353,0.79818213,0.0,-0.06631935,0.84825534,656.3736,406.95972,826.0073,648.315,679.7436,0.0,0.0,0.21881103515625,0.04583740234375,0.9761962890625,5.076751708984375,-8.44879150390625,-1.936492919921875,13469963.36996337,100542417.58241758,37464468.864468865,70.09482,1.0,1.0,4.0,1.0,1.0,40.0,,0 days 00:00:00.029000
2023-11-16 11:40:52.768,0.52334934,0.0,0.89287347,0.77919364,0.6748557,0.0,0.07190574,0.75401217,0.62674916,0.0,0.037626386,1.0180469,0.8832697,0.0,0.103676036,1.083353,0.79818213,0.0,-0.06631935,0.84825534,664.83514,276.00732,816.337,678.1319,690.6227,0.0,0.0,0.21881103515625,0.04583740234375,0.9761962890625,5.076751708984375,-8.44879150390625,-1.936492919921875,13469963.36996337,100542417.58241758,37464468.864468865,70.09482,1.0,1.0,4.0,1.0,1.0,40.0,,0 days 00:00:00.001000
2023-11-16 11:40:52.768,0.52334934,0.0,0.89287347,0.77919364,0.6748557,0.0,0.07190574,0.75401217,0.62674916,0.0,0.037626386,1.0180469,0.8832697,0.0,0.103676036,1.083353,0.79818213,0.0,-0.06631935,0.84825534,677.326,612.0513,809.4872,689.011,684.57874,0.0,0.0,0.21881103515625,0.04583740234375,0.9761962890625,5.076751708984375,-8.44879150390625,-1.936492919921875,13469963.36996337,100542417.58241758,37464468.864468865,70.09482,1.0,1.0,4.0,1.0,1.0,40.0,,0 days 00:00:00
2023-11-16 11:40:52.769,0.52334934,0.0,0.89287347,0.77919364,0.6748557,0.0,0.07190574,0.75401217,0.62674916,0.0,0.037626386,1.0180469,0.8832697,0.0,0.103676036,1.083353,0.79818213,0.0,-0.06631935,0.84825534,703.91943,712.7839,811.0989,697.47253,703.1135,0.0,0.0,0.21881103515625,0.04583740234375,0.9761962890625,5.076751708984375,-8.44879150390625,-1.936492919921875,13469963.36996337,100542417.58241758,37464468.864468865,70.09482,1.0,1.0,4.0,1.0,1.0,40.0,,0 days 00:00:00.001000
2023-11-16 11:40:52.769,0.52334934,0.0,0.89287347,0.77919364,0.6748557,0.0,0.07190574,0.75401217,0.62674916,0.0,0.037626386,1.0180469,0.8832697,0.0,0.103676036,1.083353,0.79818213,0.0,-0.06631935,0.84825534,714.3956,414.21246,814.3223,705.12823,685.38464,0.0,0.0,0.21881103515625,0.04583740234375,0.9761962890625,5.076751708984375,-8.44879150390625,-1.936492919921875,13469963.36996337,100542417.58241758,37464468.864468865,70.09482,1.0,1.0,4.0,1.0,1.0,40.0,,0 days 00:00:00
2023-11-16 11:40:52.769,0.52334934,0.0,0.89287347,0.77919364,0.6748557,0.0,0.07190574,0.75401217,0.62674916,0.0,0.037626386,1.0180469,0.8832697,0.0,0.103676036,1.083353,0.79818213,0.0,-0.06631935,0.84825534,724.87177,201.06227,817.1429,725.2747,758.315,0.0,0.0,0.21881103515625,0.04583740234375,0.9761962890625,5.076751708984375,-8.44879150390625,-1.936492919921875,13469963.36996337,100542417.58241758,37464468.864468865,70.09482,1.0,1.0,4.0,1.0,1.0,40.0,,0 days 00:00:00
2023-11-16 11:40:52.770,0.52334934,0.0,0.89287347,0.77919364,0.6748557,0.0,0.07190574,0.75401217,0.62674916,0.0,0.037626386,1.0180469,0.8832697,0.0,0.103676036,1.083353,0.79818213,0.0,-0.06631935,0.84825534,741.39197,286.0806,808.68134,753.8828,793.36993,0.0,0.0,0.21881103515625,0.04583740234375,0.9761962890625,5.076751708984375,-8.44879150390625,-1.936492919921875,13469963.36996337,100542417.58241758,37464468.864468865,70.09482,1.0,1.0,4.0,1.0,1.0,40.0,,0 days 00:00:00.001000
2023-11-16 11:40:52.770,0.52334934,0.0,0.89287347,0.77919364,0.6748557,0.0,0.07190574,0.75401217,0.62674916,0.0,0.037626386,1.0180469,0.8832697,0.0,0.103676036,1.083353,0.79818213,0.0,-0.06631935,0.84825534,752.27106,428.71796,800.2198,752.27106,656.3736,0.0,0.0,0.21881103515625,0.04583740234375,0.9761962890625,5.076751708984375,-8.44879150390625,-1.936492919921875,13469963.36996337,100542417.58241758,37464468.864468865,70.09482,1.0,1.0,4.0,1.0,1.0,40.0,,0 days 00:00:00
2023-11-16 11:40:52.770,0.52334934,0.0,0.89287347,0.77919364,0.6748557,0.0,0.07190574,0.75401217,0.62674916,0.0,0.037626386,1.0180469,0.8832697,0.0,0.103676036,1.083353,0.79818213,0.0,-0.06631935,0.84825534,769.59705,310.65933,802.6374,757.1062,809.0842,0.0,0.0,0.21881103515625,0.04583740234375,0.9761962890625,5.076751708984375,-8.44879150390625,-1.936492919921875,13469963.36996337,100542417.58241758,37464468.864468865,70.09482,1.0,1.0,4.0,1.0,1.0,40.0,,0 days 00:00:00
2023-11-16 11:40:52.771,0.52334934,0.0,0.89287347,0.77919364,0.6748557,0.0,0.07190574,0.75401217,0.62674916,0.0,0.037626386,1.0180469,0.8832697,0.0,0.103676036,1.083353,0.79818213,0.0,-0.06631935,0.84825534,784.10254,0.0,805.05493,799.81683,1023.0403,0.0,0.0,0.21881103515625,0.04583740234375,0.9761962890625,5.076751708984375,-8.44879150390625,-1.936492919921875,13469963.36996337,100542417.58241758,37464468.864468865,70.09482,1.0,1.0,4.0,1.0,1.0,40.0,,0 days 00:00:00.001000
2023-11-16 11:40:52.771,0.52334934,0.0,0.89287347,0.77919364,0.6748557,0.0,0.07190574,0.75401217,0.62674916,0.0,0.037626386,1.0180469,0.8832697,0.0,0.103676036,1.083353,0.79818213,0.0,-0.06631935,0.84825534,778.0586,378.75458,787.72894,790.9524,812.71063,0.0,0.0,0.21881103515625,0.04583740234375,0.9761962890625,5.076751708984375,-8.44879150390625,-1.936492919921875,13469963.36996337,100542417.58241758,37464468.864468865,70.09482,1.0,1.0,4.0,1.0,1.0,40.0,,0 days 00:00:00
2023-11-16 11:40:52.772,0.52334934,0.0,0.89287347,0.77919364,0.6748557,0.0,0.07190574,0.75401217,0.62674916,0.0,0.037626386,1.0180469,0.8832697,0.0,0.103676036,1.083353,0.79818213,0.0,-0.06631935,0.84825534,794.57874,465.3846,788.5348,777.25275,712.7839,0.0,0.0,0.21881103515625,0.04583740234375,0.9761962890625,5.076751708984375,-8.44879150390625,-1.936492919921875,13469963.36996337,100542417.58241758,37464468.864468865,70.09482,1.0,1.0,4.0,1.0,1.0,40.0,,0 days 00:00:00.001000
2023-11-16 11:40:52.833,0.52334934,0.0,0.89287347,0.77919364,0.6748557,0.0,0.07190574,0.75401217,0.62674916,0.0,0.037626386,1.0180469,0.8832697,0.0,0.103676036,1.083353,0.79818213,0.0,-0.06631935,0.84825534,803.0403,216.77655,801.4286,822.381,791.3553,0.0,0.0,0.30413818359375,0.06915283203125,0.97113037109375,7.559051513671875,-9.25628662109375,0.456085205078125,13469963.36996337,100542417.58241758,37464468.864468865,70.09482,1.0,1.0,4.0,1.0,1.0,40.0,,0 days 00:00:00.061000
2023-11-16 11:40:52.834,0.52334934,0.0,0.91511196,0.77919364,0.6748557,0.0,0.12701073,0.75401217,0.62674916,0.0,0.03487568,1.0180469,0.8832697,0.0,0.10940984,1.083353,0.79818213,0.0,-0.06484676,0.84825534,827.619,423.07693,798.60803,850.989,782.49084,0.0,0.0,0.30413818359375,0.06915283203125,0.97113037109375,7.559051513671875,-9.25628662109375,0.456085205078125,13469963.36996337,100542417.58241758,37464468.864468865,70.09482,1.0,1.0,4.0,1.0,1.0,40.0,,0 days 00:00:00.001000
2023-11-16 11:40:52.836,0.52334934,0.0,0.91511196,0.77919364,0.6748557,0.0,0.12701073,0.75401217,0.62674916,0.0,0.03487568,1.0180469,0.8832697,0.0,0.10940984,1.083353,0.79818213,0.0,-0.06484676,0.84825534,836.8865,666.4469,800.2198,841.31866,737.76556,0.0,0.0,0.30413818359375,0.06915283203125,0.97113037109375,7.559051513671875,-9.25628662109375,0.456085205078125,13469963.36996337,100542417.58241758,37464468.864468865,70.09482,1.0,1.0,4.0,1.0,1.0,40.0,,0 days 00:00:00.002000
2023-11-16 11:40:52.837,0.52334934,0.0,0.91511196,0.77919364,0.6748557,0.0,0.12701073,0.75401217,0.62674916,0.0,0.03487568,1.0180469,0.8832697,0.0,0.10940984,1.083353,0.79818213,0.0,-0.06484676,0.84825534,848.5714,540.32965,806.26373,834.87177,704.3223,0.0,0.0,0.30413818359375,0.06915283203125,0.97113037109375,7.559051513671875,-9.25628662109375,0.456085205078125,13469963.36996337,100542417.58241758,37464468.864468865,70.09482,1.0,1.0,4.0,1.0,1.0,40.0,,0 days 00:00:00.001000
2023-11-16 11:40:52.837,0.52334934,0.0,0.91511196,0.77919364,0.6748557,0.0,0.12701073,0.75401217,0.62674916,0.0,0.03487568,1.0180469,0.8832697,0.0,0.10940984,1.083353,0.79818213,0.0,-0.06484676,0.84825534,876.3736,147.87546,806.6667,868.315,818.7546,0.0,0.0,0.30413818359375,0.06915283203125,0.97113037109375,7.559051513671875,-9.25628662109375,0.456085205078125,13469963.36996337,100542417.58241758,37464468.864468865,70.09482,1.0,1.0,4.0,1.0,1.0,40.0,,0 days 00:00:00
2023-11-16 11:40:52.837,0.52334934,0.0,0.91511196,0.77919364,0.6748557,0.0,0.12701073,0.75401217,0.62674916,0.0,0.03487568,1.0180469,0.8832697,0.0,0.10940984,1.083353,0.79818213,0.0,-0.06484676,0.84825534,846.1539,0.0,801.4286,866.30035,832.4542,0.0,0.0,0.30413818359375,0.06915283203125,0.97113037109375,7.559051513671875,-9.25628662109375,0.456085205078125,13469963.36996337,100542417.58241758,37464468.864468865,70.09482,1.0,1.0,4.0,1.0,1.0,40.0,,0 days 00:00:00
2023-11-16 11:40:52.838,0.52334934,0.0,0.91511196,0.77919364,0.6748557,0.0,0.12701073,0.75401217,0.62674916,0.0,0.03487568,1.0180469,0.8832697,0.0,0.10940984,1.083353,0.79818213,0.0,-0.06484676,0.84825534,855.0183,98.71795,793.36993,833.2601,718.4249,0.0,0.0,0.30413818359375,0.06915283203125,0.97113037109375,7.559051513671875,-9.25628662109375,0.456085205078125,13469963.36996337,100542417.58241758,37464468.864468865,70.09482,1.0,1.0,4.0,1.0,1.0,40.0,,0 days 00:00:00.001000
2023-11-16 11:40:52.838,0.52334934,0.0,0.91511196,0.77919364,0.6748557,0.0,0.12701073,0.75401217,0.62674916,0.0,0.03487568,1.0180469,0.8832697,0.0,0.10940984,1.083353,0.79818213,0.0,-0.06484676,0.84825534,883.22345,107.98535,795.78754,862.27106,692.23444,0.0,0.0,0.30413818359375,0.06915283203125,0.97113037109375,7.559051513671875,-9.25628662109375,0.456085205078125,13469963.36996337,100542417.58241758,37464468.864468865,70.09482,1.0,1.0,4.0,1.0,1.0,40.0,,0 days 00:00:00
2023-11-16 11:40:52.838,0.52334934,0.0,0.91511196,0.77919364,0.6748557,0.0,0.12701073,0.75401217,0.62674916,0.0,0.03487568,1.0180469,0.8832697,0.0,0.10940984,1.083353,0.79818213,0.0,-0.06484676,0.84825534,892.0879,10.07326,809.89014,886.4469,797.8022,0.0,0.0,0.30413818359375,0.06915283203125,0.97113037109375,7.559051513671875,-9.25628662109375,0.456085205078125,13469963.36996337,100542417.58241758,37464468.864468865,70.09482,1.0,1.0,4.0,1.0,1.0,40.0,,0 days 00:00:00
2023-11-16 11:40:52.839,0.52334934,0.0,0.91511196,0.77919364,0.6748557,0.0,0.12701073,0.75401217,0.62674916,0.0,0.03487568,1.0180469,0.8832697,0.0,0.10940984,1.083353,0.79818213,0.0,-0.06484676,0.84825534,890.4762,213.55312,801.8315,884.83514,842.1245,0.0,0.0,0.30413818359375,0.06915283203125,0.97113037109375,7.559051513671875,-9.25628662109375,0.456085205078125,13469963.36996337,100542417.58241758,37464468.864468865,70.09482,1.0,1.0,4.0,1.0,1.0,40.0,,0 days 00:00:00.001000
2023-11-16 11:40:52.839,0.52334934,0.0,0.91511196,0.77919364,0.6748557,0.0,0.12701073,0.75401217,0.62674916,0.0,0.03487568,1.0180469,0.8832697,0.0,0.10940984,1.083353,0.79818213,0.0,-0.06484676,0.84825534,857.8388,593.1135,785.31134,862.674,697.8755,0.0,0.0,0.30413818359375,0.06915283203125,0.97113037109375,7.559051513671875,-9.25628662109375,0.456085205078125,13469963.36996337,100542417.58241758,37464468.864468865,70.09482,1.0,1.0,4.0,1.0,1.0,40.0,,0 days 00:00:00
2023-11-16 11:40:52.840,0.52334934,0.0,0.91511196,0.77919364,0.6748557,0.0,0.12701073,0.75401217,0.62674916,0.0,0.03487568,1.0180469,0.8832697,0.0,0.10940984,1.083353,0.79818213,0.0,-0.06484676,0.84825534,864.68866,357.39926,793.7729,865.89746,723.2601,0.0,0.0,0.30413818359375,0.06915283203125,0.97113037109375,7.559051513671875,-9.25628662109375,0.456085205078125,13469963.36996337,100542417.58241758,37464468.864468865,70.09482,1.0,1.0,4.0,1.0,1.0,40.0,,0 days 00:00:00.001000
2023-11-16 11:40:52.882,0.52334934,0.0,0.91511196,0.77919364,0.6748557,0.0,0.12701073,0.75401217,0.62674916,0.0,0.03487568,1.0180469,0.8832697,0.0,0.10940984,1.083353,0.79818213,0.0,-0.06484676,0.84825534,882.8205,168.02197,794.57874,866.30035,734.1392,0.0,0.0,0.30413818359375,0.06915283203125,0.97113037109375,7.559051513671875,-9.25628662109375,0.456085205078125,13223369.963369964,100535164.83516484,37452380.95238095,70.09482,1.0,1.0,4.0,1.0,1.0,40.0,,0 days 00:00:00.042000
2023-11-16 11:40:52.883,0.52334934,0.0,0.91511196,0.77919364,0.6748557,0.0,0.12701073,0.75401217,0.62674916,0.0,0.03487568,1.0180469,0.8832697,0.0,0.10940984,1.083353,0.79818213,0.0,-0.06484676,0.84825534,903.36993,421.06226,789.34064,864.68866,663.22345,0.0,0.0,0.30413818359375,0.06915283203125,0.97113037109375,7.559051513671875,-9.25628662109375,0.456085205078125,13223369.963369964,100535164.83516484,37452380.95238095,70.09482,1.0,1.0,4.0,1.0,1.0,40.0,,0 days 00:00:00.001000
2023-11-16 11:40:52.883,0.52334934,0.0,0.91511196,0.77919364,0.6748557,0.0,0.12701073,0.75401217,0.62674916,0.0,0.03487568,1.0180469,0.8832697,0.0,0.10940984,1.083353,0.79818213,0.0,-0.06484676,0.84825534,895.7143,296.15384,789.34064,904.57874,719.6337,0.0,0.0,0.30413818359375,0.06915283203125,0.97113037109375,7.559051513671875,-9.25628662109375,0.456085205078125,13223369.963369964,100535164.83516484,37452380.95238095,70.09482,1.0,1.0,4.0,1.0,1.0,40.0,,0 days 00:00:00
2023-11-16 11:40:52.884,0.52334934,0.0,0.91511196,0.77919364,0.6748557,0.0,0.12701073,0.75401217,0.62674916,0.0,0.03487568,1.0180469,0.8832697,0.0,0.10940984,1.083353,0.79818213,0.0,-0.06484676,0.84825534,862.27106,74.13919,787.72894,902.96704,840.10986,0.0,0.0,0.30413818359375,0.06915283203125,0.97113037109375,7.559051513671875,-9.25628662109375,0.456085205078125,13223369.963369964,100535164.83516484,37452380.95238095,70.09482,1.0,1.0,4.0,1.0,1.0,40.0,,0 days 00:00:00.001000
2023-11-16 11:40:52.884,0.52334934,0.0,0.91511196,0.77919364,0.6748557,0.0,0.12701073,0.75401217,0.62674916,0.0,0.03487568,1.0180469,0.8832697,0.0,0.10940984,1.083353,0.79818213,0.0,-0.06484676,0.84825534,864.68866,191.79488,788.1319,855.82416,844.94507,0.0,0.0,0.30413818359375,0.06915283203125,0.97113037109375,7.559051513671875,-9.25628662109375,0.456085205078125,13223369.963369964,100535164.83516484,37452380.95238095,70.09482,1.0,1.0,4.0,1.0,1.0,40.0,,0 days 00:00:00
2023-11-16 11:40:52.885,0.52334934,0.0,0.91511196,0.77919364,0.6748557,0.0,0.12701073,0.75401217,0.62674916,0.0,0.03487568,1.0180469,0.8832697,0.0,0.10940984,1.083353,0.79818213,0.0,-0.06484676,0.84825534,854.21246,253.0403,784.90845,842.52747,799.011,0.0,0.0,0.30413818359375,0.06915283203125,0.97113037109375,7.559051513671875,-9.25628662109375,0.456085205078125,13223369.963369964,100535164.83516484,37452380.95238095,70.09482,1.0,1.0,4.0,1.0,1.0,40.0,,0 days 00:00:00.001000
2023-11-16 11:40:52.885,0.52334934,0.0,0.91511196,0.77919364,0.6748557,0.0,0.12701073,0.75401217,0.62674916,0.0,0.03487568,1.0180469,0.8832697,0.0,0.10940984,1.083353,0.79818213,0.0,-0.06484676,0.84825534,869.12085,132.5641,782.0879,870.7326,796.1905,0.0,0.0,0.30413818359375,0.06915283203125,0.97113037109375,7.559051513671875,-9.25628662109375,0.456085205078125,13223369.963369964,100535164.83516484,37452380.95238095,70.09482,1.0,1.0,4.0,1.0,1.0,40.0,,0 days 00:00:00
2023-11-16 11:40:52.886,0.52334934,0.0,0.91511196,0.77919364,0.6748557,0.0,0.12701073,0.75401217,0.62674916,0.0,0.03487568,1.0180469,0.8832697,0.0,0.10940984,1.083353,0.79818213,0.0,-0.06484676,0.84825534,877.1795,74.54212,788.93774,890.07324,862.674,0.0,0.0,0.30413818359375,0.06915283203125,0.97113037109375,7.559051513671875,-9.25628662109375,0.456085205078125,13223369.963369964,100535164.83516484,37452380.95238095,70.09482,1.0,1.0,4.0,1.0,1.0,40.0,,0 days 00:00:00.001000
2023-11-16 11:40:52.887,0.52334934,0.0,0.91511196,0.77919364,0.6748557,0.0,0.12701073,0.75401217,0.62674916,0.0,0.03487568,1.0180469,0.8832697,0.0,0.10940984,1.083353,0.79818213,0.0,-0.06484676,0.84825534,877.98535,0.0,802.23444,906.5934,1035.1282,0.0,0.0,0.30413818359375,0.06915283203125,0.97113037109375,7.559051513671875,-9.25628662109375,0.456085205078125,13223369.963369964,100535164.83516484,37452380.95238095,70.09482,1.0,1.0,4.0,1.0,1.0,40.0,,0 days 00:00:00.001000
2023-11-16 11:40:52.887,0.52334934,0.0,0.91511196,0.77919364,0.6748557,0.0,0.12701073,0.75401217,0.62674916,0.0,0.03487568,1.0180469,0.8832697,0.0,0.10940984,1.083353,0.79818213,0.0,-0.06484676,0.84825534,861.4652,66.886444,792.96704,866.7033,949.304,0.0,0.0,0.30413818359375,0.06915283203125,0.97113037109375,7.559051513671875,-9.25628662109375,0.456085205078125,13223369.963369964,100535164.83516484,37452380.95238095,70.09482,1.0,1.0,4.0,1.0,1.0,40.0,,0 days 00:00:00
2023-11-16 11:40:52.888,0.52334934,0.0,0.91511196,0.77919364,0.6748557,0.0,0.12701073,0.75401217,0.62674916,0.0,0.03487568,1.0180469,0.8832697,0.0,0.10940984,1.083353,0.79818213,0.0,-0.06484676,0.84825534,849.7802,258.27838,783.2967,830.84247,728.0952,0.0,0.0,0.30413818359375,0.06915283203125,0.97113037109375,7.559051513671875,-9.25628662109375,0.456085205078125,13223369.963369964,100535164.83516484,37452380.95238095,70.09482,1.0,1.0,4.0,1.0,1.0,40.0,,0 days 00:00:00.001000
2023-11-16 11:40:52.888,0.52334934,0.0,0.91511196,0.77919364,0.6748557,0.0,0.12701073,0.75401217,0.62674916,0.0,0.03487568,1.0180469,0.8832697,0.0,0.10940984,1.083353,0.79818213,0.0,-0.06484676,0.84825534,866.7033,139.01099,788.1319,860.65936,811.0989,0.0,0.0,0.30413818359375,0.06915283203125,0.97113037109375,7.559051513671875,-9.25628662109375,0.456085205078125,13223369.963369964,100535164.83516484,37452380.95238095,70.09482,1.0,1.0,4.0,1.0,1.0,40.0,,0 days 00:00:00
2023-11-16 11:40:52.915,0.52334934,0.0,0.91511196,0.77919364,0.6748557,0.0,0.12701073,0.75401217,0.62674916,0.0,0.03487568,1.0180469,0.8832697,0.0,0.10940984,1.083353,0.79818213,0.0,-0.06484676,0.84825534,865.09155,239.74359,787.326,882.01465,842.1245,0.0,0.0,0.2449951171875,0.086181640625,1.00921630859375,7.9254150390625,-3.70849609375,7.2076416015625,13223369.963369964,100535164.83516484,37452380.95238095,70.09482,1.0,1.0,4.0,1.0,1.0,40.0,,0 days 00:00:00.027000
2023-11-16 11:40:52.917,0.52334934,0.0,0.91511196,0.77919364,0.6748557,0.0,0.12701073,0.75401217,0.62674916,0.0,0.03487568,1.0180469,0.8832697,0.0,0.10940984,1.083353,0.79818213,0.0,-0.06484676,0.84825534,859.45056,615.6777,780.4762,863.8828,679.34064,0.0,0.0,0.2449951171875,0.086181640625,1.00921630859375,7.9254150390625,-3.70849609375,7.2076416015625,13223369.963369964,100535164.83516484,37452380.95238095,70.09482,1.0,1.0,4.0,1.0,1.0,40.0,,0 days 00:00:00.002000
2023-11-16 11:40:52.917,0.52334934,0.0,0.91511196,0.77919364,0.6748557,0.0,0.12701073,0.75401217,0.62674916,0.0,0.03487568,1.0180469,0.8832697,0.0,0.10940984,1.083353,0.79818213,0.0,-0.06484676,0.84825534,868.71796,503.663,783.2967,876.3736,647.50916,0.0,0.0,0.2449951171875,0.086181640625,1.00921630859375,7.9254150390625,-3.70849609375,7.2076416015625,13223369.963369964,100535164.83516484,37452380.95238095,70.09482,1.0,1.0,4.0,1.0,1.0,40.0,,0 days 00:00:00
2023-11-16 11:40:52.920,0.52334934,0.0,0.91511196,0.77919364,0.6748557,0.0,0.12701073,0.75401217,0.62674916,0.0,0.03487568,1.0180469,0.8832697,0.0,0.10940984,1.083353,0.79818213,0.0,-0.06484676,0.84825534,868.71796,503.663,783.2967,876.3736,647.50916,0.0,0.0,0.2449951171875,0.086181640625,1.00921630859375,7.9254150390625,-3.70849609375,7.2076416015625,13223369.963369964,100535164.83516484,37452380.95238095,70.09482,1.0,1.0,4.0,1.0,1.0,40.0,/muse/elements/blink,0 days 00:00:00.003000
2023-11-16 11:40:52.920,0.52334934,0.0,0.91511196,0.77919364,0.6748557,0.0,0.12701073,0.75401217,0.62674916,0.0,0.03487568,1.0180469,0.8832697,0.0,0.10940984,1.083353,0.79818213,0.0,-0.06484676,0.84825534,868.71796,503.663,783.2967,876.3736,647.50916,0.0,0.0,0.2449951171875,0.086181640625,1.00921630859375,7.9254150390625,-3.70849609375,7.2076416015625,13223369.963369964,100535164.83516484,37452380.95238095,70.09482,1.0,1.0,4.0,1.0,1.0,40.0,/muse/elements/jaw_clench,0 days 00:00:00
2023-11-16 11:40:52.918,0.52334934,0.0,0.9495919,0.77919364,0.6748557,0.0,0.21123697,0.75401217,0.62674916,0.0,0.06755646,1.0180469,0.8832697,0.0,0.106446445,1.083353,0.79818213,0.0,-0.069780044,0.84825534,864.2857,339.2674,787.326,884.43225,707.5458,0.0,0.0,0.2449951171875,0.086181640625,1.00921630859375,7.9254150390625,-3.70849609375,7.2076416015625,13223369.963369964,100535164.83516484,37452380.95238095,70.09482,1.0,1.0,4.0,1.0,1.0,40.0,/muse/elements/jaw_clench,-1 days +23:59:59.998000
2023-11-16 11:40:52.921,0.52334934,0.0,0.9495919,0.77919364,0.6748557,0.0,0.21123697,0.75401217,0.62674916,0.0,0.06755646,1.0180469,0.8832697,0.0,0.106446445,1.083353,0.79818213,0.0,-0.069780044,0.84825534,869.92676,408.57144,783.69965,867.1062,737.3626,0.0,0.0,0.2449951171875,0.086181640625,1.00921630859375,7.9254150390625,-3.70849609375,7.2076416015625,13223369.963369964,100535164.83516484,37452380.95238095,70.09482,1.0,1.0,4.0,1.0,1.0,40.0,/muse/elements/jaw_clench,0 days 00:00:00.003000
2023-11-16 11:40:52.922,0.52334934,0.0,0.9495919,0.77919364,0.6748557,0.0,0.21123697,0.75401217,0.62674916,0.0,0.06755646,1.0180469,0.8832697,0.0,0.106446445,1.083353,0.79818213,0.0,-0.069780044,0.84825534,872.3443,274.3956,785.31134,870.7326,715.6044,0.0,0.0,0.2449951171875,0.086181640625,1.00921630859375,7.9254150390625,-3.70849609375,7.2076416015625,13223369.963369964,100535164.83516484,37452380.95238095,70.09482,1.0,1.0,4.0,1.0,1.0,40.0,/muse/elements/jaw_clench,0 days 00:00:00.001000
2023-11-16 11:40:52.922,0.52334934,0.0,0.9495919,0.77919364,0.6748557,0.0,0.21123697,0.75401217,0.62674916,0.0,0.06755646,1.0180469,0.8832697,0.0,0.106446445,1.083353,0.79818213,0.0,-0.069780044,0.84825534,863.0769,157.94872,789.34064,852.6007,790.54944,0.0,0.0,0.2449951171875,0.086181640625,1.00921630859375,7.9254150390625,-3.70849609375,7.2076416015625,13223369.963369964,100535164.83516484,37452380.95238095,70.09482,1.0,1.0,4.0,1.0,1.0,40.0,/muse/elements/jaw_clench,0 days 00:00:00
2023-11-16 11:40:52.923,0.52334934,0.0,0.9495919,0.77919364,0.6748557,0.0,0.21123697,0.75401217,0.62674916,0.0,0.06755646,1.0180469,0.8832697,0.0,0.106446445,1.083353,0.79818213,0.0,-0.069780044,0.84825534,871.53845,10.07326,803.0403,875.56775,1047.619,0.0,0.0,0.2449951171875,0.086181640625,1.00921630859375,7.9254150390625,-3.70849609375,7.2076416015625,13223369.963369964,100535164.83516484,37452380.95238095,70.09482,1.0,1.0,4.0,1.0,1.0,40.0,/muse/elements/jaw_clench,0 days 00:00:00.001000
2023-11-16 11:40:52.923,0.52334934,0.0,0.9495919,0.77919364,0.6748557,0.0,0.21123697,0.75401217,0.62674916,0.0,0.06755646,1.0180469,0.8832697,0.0,0.106446445,1.083353,0.79818213,0.0,-0.069780044,0.84825534,850.18317,132.96703,799.41394,893.69965,1054.4689,0.0,0.0,0.2449951171875,0.086181640625,1.00921630859375,7.9254150390625,-3.70849609375,7.2076416015625,13223369.963369964,100535164.83516484,37452380.95238095,70.09482,1.0,1.0,4.0,1.0,1.0,40.0,/muse/elements/jaw_clench,0 days 00:00:00
2023-11-16 11:40:52.924,0.52334934,0.0,0.9495919,0.77919364,0.6748557,0.0,0.21123697,0.75401217,0.62674916,0.0,0.06755646,1.0180469,0.8832697,0.0,0.106446445,1.083353,0.79818213,0.0,-0.069780044,0.84825534,859.45056,508.09525,782.8938,850.18317,748.6447,0.0,0.0,0.2449951171875,0.086181640625,1.00921630859375,7.9254150390625,-3.70849609375,7.2076416015625,13223369.963369964,100535164.83516484,37452380.95238095,70.09482,1.0,1.0,4.0,1.0,1.0,40.0,/muse/elements/jaw_clench,0 days 00:00:00.001000
2023-11-16 11:40:52.924,0.52334934,0.0,0.9495919,0.77919364,0.6748557,0.0,0.21123697,0.75401217,0.62674916,0.0,0.06755646,1.0180469,0.8832697,0.0,0.106446445,1.083353,0.79818213,0.0,-0.069780044,0.84825534,878.7912,323.15018,785.7143,840.9158,704.3223,0.0,0.0,0.2449951171875,0.086181640625,1.00921630859375,7.9254150390625,-3.70849609375,7.2076416015625,13223369.963369964,100535164.83516484,37452380.95238095,70.09482,1.0,1.0,4.0,1.0,1.0,40.0,/muse/elements/jaw_clench,0 days 00:00:00
2023-11-16 11:40:52.924,0.52334934,0.0,0.9495919,0.77919364,0.6748557,0.0,0.21123697,0.75401217,0.62674916,0.0,0.06755646,1.0180469,0.8832697,0.0,0.106446445,1.083353,0.79818213,0.0,-0.069780044,0.84825534,838.49817,188.1685,786.9231,850.18317,739.3773,0.0,0.0,0.2449951171875,0.086181640625,1.00921630859375,7.9254150390625,-3.70849609375,7.2076416015625,13223369.963369964,100535164.83516484,37452380.95238095,70.09482,1.0,1.0,4.0,1.0,1.0,40.0,/muse/elements/jaw_clench,0 days 00:00:00
2023-11-16 11:40:52.965,0.52334934,0.0,0.9495919,0.77919364,0.6748557,0.0,0.21123697,0.75401217,0.62674916,0.0,0.06755646,1.0180469,0.8832697,0.0,0.106446445,1.083353,0.79818213,0.0,-0.069780044,0.84825534,838.49817,419.45056,786.9231,852.6007,685.38464,0.0,0.0,0.2430419921875,0.09857177734375,0.98968505859375,3.42437744140625,-5.45806884765625,9.22637939453125,13378095.238095235,100579487.17948718,37440293.04029304,70.09482,1.0,1.0,4.0,1.0,1.0,40.0,/muse/elements/jaw_clench,0 days 00:00:00.041000
2023-11-16 11:40:52.966,0.52334934,0.0,0.9495919,0.77919364,0.6748557,0.0,0.21123697,0.75401217,0.62674916,0.0,0.06755646,1.0180469,0.8832697,0.0,0.106446445,1.083353,0.79818213,0.0,-0.069780044,0.84825534,856.63007,461.35532,791.3553,846.55676,626.55676,0.0,0.0,0.2430419921875,0.09857177734375,0.98968505859375,3.42437744140625,-5.45806884765625,9.22637939453125,13378095.238095235,100579487.17948718,37440293.04029304,70.09482,1.0,1.0,4.0,1.0,1.0,40.0,/muse/elements/jaw_clench,0 days 00:00:00.001000
2023-11-16 11:40:52.966,0.52334934,0.0,0.9495919,0.77919364,0.6748557,0.0,0.21123697,0.75401217,0.62674916,0.0,0.06755646,1.0180469,0.8832697,0.0,0.106446445,1.083353,0.79818213,0.0,-0.069780044,0.84825534,840.5128,217.58241,796.1905,860.65936,657.5824,0.0,0.0,0.2430419921875,0.09857177734375,0.98968505859375,3.42437744140625,-5.45806884765625,9.22637939453125,13378095.238095235,100579487.17948718,37440293.04029304,70.09482,1.0,1.0,4.0,1.0,1.0,40.0,/muse/elements/jaw_clench,0 days 00:00:00
2023-11-16 11:40:52.967,0.52334934,0.0,0.9495919,0.77919364,0.6748557,0.0,0.21123697,0.75401217,0.62674916,0.0,0.06755646,1.0180469,0.8832697,0.0,0.106446445,1.083353,0.79818213,0.0,-0.069780044,0.84825534,842.9304,132.96703,798.20514,842.52747,674.10254,0.0,0.0,0.2430419921875,0.09857177734375,0.98968505859375,3.42437744140625,-5.45806884765625,9.22637939453125,13378095.238095235,100579487.17948718,37440293.04029304,70.09482,1.0,1.0,4.0,1.0,1.0,40.0,/muse/elements/jaw_clench,0 days 00:00:00.001000
2023-11-16 11:40:52.967,0.52334934,0.0,0.9495919,0.77919364,0.6748557,0.0,0.21123697,0.75401217,0.62674916,0.0,0.06755646,1.0180469,0.8832697,0.0,0.106446445,1.083353,0.79818213,0.0,-0.069780044,0.84825534,840.5128,349.34067,798.60803,821.5751,640.65936,0.0,0.0,0.2430419921875,0.09857177734375,0.98968505859375,3.42437744140625,-5.45806884765625,9.22637939453125,13378095.238095235,100579487.17948718,37440293.04029304,70.09482,1.0,1.0,4.0,1.0,1.0,40.0,/muse/elements/jaw_clench,0 days 00:00:00
2023-11-16 11:40:52.968,0.52334934,0.0,0.9495919,0.77919364,0.6748557,0.0,0.21123697,0.75401217,0.62674916,0.0,0.06755646,1.0180469,0.8832697,0.0,0.106446445,1.083353,0.79818213,0.0,-0.069780044,0.84825534,838.9011,150.69597,802.6374,839.304,659.59705,0.0,0.0,0.2430419921875,0.09857177734375,0.98968505859375,3.42437744140625,-5.45806884765625,9.22637939453125,13378095.238095235,100579487.17948718,37440293.04029304,70.09482,1.0,1.0,4.0,1.0,1.0,40.0,/muse/elements/jaw_clench,0 days 00:00:00.001000
2023-11-16 11:40:52.968,0.52334934,0.0,0.9495919,0.77919364,0.6748557,0.0,0.21123697,0.75401217,0.62674916,0.0,0.06755646,1.0180469,0.8832697,0.0,0.106446445,1.083353,0.79818213,0.0,-0.069780044,0.84825534,863.0769,0.0,805.8608,859.0476,902.5641,0.0,0.0,0.2430419921875,0.09857177734375,0.98968505859375,3.42437744140625,-5.45806884765625,9.22637939453125,13378095.238095235,100579487.17948718,37440293.04029304,70.09482,1.0,1.0,4.0,1.0,1.0,40.0,/muse/elements/jaw_clench,0 days 00:00:00
2023-11-16 11:40:52.969,0.52334934,0.0,0.9495919,0.77919364,0.6748557,0.0,0.21123697,0.75401217,0.62674916,0.0,0.06755646,1.0180469,0.8832697,0.0,0.106446445,1.083353,0.79818213,0.0,-0.069780044,0.84825534,837.28937,31.831501,799.41394,856.63007,942.4542,0.0,0.0,0.2430419921875,0.09857177734375,0.98968505859375,3.42437744140625,-5.45806884765625,9.22637939453125,13378095.238095235,100579487.17948718,37440293.04029304,70.09482,1.0,1.0,4.0,1.0,1.0,40.0,/muse/elements/jaw_clench,0 days 00:00:00.001000
2023-11-16 11:40:52.969,0.52334934,0.0,0.9495919,0.77919364,0.6748557,0.0,0.21123697,0.75401217,0.62674916,0.0,0.06755646,1.0180469,0.8832697,0.0,0.106446445,1.083353,0.79818213,0.0,-0.069780044,0.84825534,815.5311,158.35165,791.75824,821.978,757.50916,0.0,0.0,0.2430419921875,0.09857177734375,0.98968505859375,3.42437744140625,-5.45806884765625,9.22637939453125,13378095.238095235,100579487.17948718,37440293.04029304,70.09482,1.0,1.0,4.0,1.0,1.0,40.0,/muse/elements/jaw_clench,0 days 00:00:00
2023-11-16 11:40:52.970,0.52334934,0.0,0.9495919,0.77919364,0.6748557,0.0,0.21123697,0.75401217,0.62674916,0.0,0.06755646,1.0180469,0.8832697,0.0,0.106446445,1.083353,0.79818213,0.0,-0.069780044,0.84825534,829.2308,127.728935,794.17584,847.3626,794.9817,0.0,0.0,0.2430419921875,0.09857177734375,0.98968505859375,3.42437744140625,-5.45806884765625,9.22637939453125,13378095.238095235,100579487.17948718,37440293.04029304,70.09482,1.0,1.0,4.0,1.0,1.0,40.0,/muse/elements/jaw_clench,0 days 00:00:00.001000
2023-11-16 11:40:52.970,0.52334934,0.0,0.9495919,0.77919364,0.6748557,0.0,0.21123697,0.75401217,0.62674916,0.0,0.06755646,1.0180469,0.8832697,0.0,0.106446445,1.083353,0.79818213,0.0,-0.069780044,0.84825534,839.707,0.0,796.5934,837.6923,834.4689,0.0,0.0,0.2430419921875,0.09857177734375,0.98968505859375,3.42437744140625,-5.45806884765625,9.22637939453125,13378095.238095235,100579487.17948718,37440293.04029304,70.09482,1.0,1.0,4.0,1.0,1.0,40.0,/muse/elements/jaw_clench,0 days 00:00:00
2023-11-16 11:40:52.971,0.52334934,0.0,0.9495919,0.77919364,0.6748557,0.0,0.21123697,0.75401217,0.62674916,0.0,0.06755646,1.0180469,0.8832697,0.0,0.106446445,1.083353,0.79818213,0.0,-0.069780044,0.84825534,843.73627,85.42124,796.99634,825.2015,833.2601,0.0,0.0,0.2430419921875,0.09857177734375,0.98968505859375,3.42437744140625,-5.45806884765625,9.22637939453125,13378095.238095235,100579487.17948718,37440293.04029304,70.09482,1.0,1.0,4.0,1.0,1.0,40.0,/muse/elements/jaw_clench,0 days 00:00:00.001000
2023-11-16 11:40:53.027,0.52334934,0.0,0.9495919,0.77919364,0.6748557,0.0,0.21123697,0.75401217,0.62674916,0.0,0.06755646,1.0180469,0.8832697,0.0,0.106446445,1.083353,0.79818213,0.0,-0.069780044,0.84825534,818.7546,301.39194,792.96704,844.1392,602.381,0.0,0.0,0.17950439453125,0.08465576171875,0.9515380859375,3.072967529296875,6.65435791015625,5.36834716796875,13378095.238095235,100579487.17948718,37440293.04029304,70.09482,1.0,1.0,4.0,1.0,1.0,40.0,/muse/elements/jaw_clench,0 days 00:00:00.056000
2023-11-16 11:40:53.028,0.52334934,0.0,0.9495919,0.77919364,0.6748557,0.0,0.21123697,0.75401217,0.62674916,0.0,0.06755646,1.0180469,0.8832697,0.0,0.106446445,1.083353,0.79818213,0.0,-0.069780044,0.84825534,818.7546,295.75092,793.36993,817.5458,579.81683,0.0,0.0,0.17950439453125,0.08465576171875,0.9515380859375,3.072967529296875,6.65435791015625,5.36834716796875,13378095.238095235,100579487.17948718,37440293.04029304,70.09482,1.0,1.0,4.0,1.0,1.0,40.0,/muse/elements/jaw_clench,0 days 00:00:00.001000
2023-11-16 11:40:53.028,0.52334934,0.0,0.9495919,0.77919364,0.6748557,0.0,0.21123697,0.75401217,0.62674916,0.0,0.06755646,1.0180469,0.8832697,0.0,0.106446445,1.083353,0.79818213,0.0,-0.069780044,0.84825534,837.6923,170.43956,796.1905,811.9048,650.7326,0.0,0.0,0.17950439453125,0.08465576171875,0.9515380859375,3.072967529296875,6.65435791015625,5.36834716796875,13378095.238095235,100579487.17948718,37440293.04029304,70.09482,1.0,1.0,4.0,1.0,1.0,40.0,/muse/elements/jaw_clench,0 days 00:00:00
2023-11-16 11:40:53.029,0.52334934,0.0,0.9495919,0.77919364,0.6748557,0.0,0.21123697,0.75401217,0.62674916,0.0,0.06755646,1.0180469,0.8832697,0.0,0.106446445,1.083353,0.79818213,0.0,-0.069780044,0.84825534,830.84247,361.02563,794.9817,826.8132,733.73627,0.0,0.0,0.17950439453125,0.08465576171875,0.9515380859375,3.072967529296875,6.65435791015625,5.36834716796875,13378095.238095235,100579487.17948718,37440293.04029304,70.09482,1.0,1.0,4.0,1.0,1.0,40.0,/muse/elements/jaw_clench,0 days 00:00:00.001000
2023-11-16 11:40:53.029,0.52334934,0.0,0.9495919,0.77919364,0.6748557,0.0,0.21123697,0.75401217,0.62674916,0.0,0.06755646,1.0180469,0.8832697,0.0,0.106446445,1.083353,0.79818213,0.0,-0.069780044,0.84825534,805.8608,501.64835,793.36993,833.663,759.5238,0.0,0.0,0.17950439453125,0.08465576171875,0.9515380859375,3.072967529296875,6.65435791015625,5.36834716796875,13378095.238095235,100579487.17948718,37440293.04029304,70.09482,1.0,1.0,4.0,1.0,1.0,40.0,/muse/elements/jaw_clench,0 days 00:00:00
2023-11-16 11:40:53.029,0.52334934,0.0,0.9967711,0.77919364,0.6748557,0.0,0.31385216,0.75401217,0.62674916,0.0,0.10489056,1.0180469,0.8832697,0.0,0.095679276,1.083353,0.79818213,0.0,-0.07928048,0.84825534,828.8278,170.43956,800.2198,835.6777,699.89014,0.0,0.0,0.17950439453125,0.08465576171875,0.9515380859375,3.072967529296875,6.65435791015625,5.36834716796875,13378095.238095235,100579487.17948718,37440293.04029304,70.09482,1.0,1.0,4.0,1.0,1.0,40.0,/muse/elements/jaw_clench,0 days 00:00:00
2023-11-16 11:40:53.031,0.52334934,0.0,0.9967711,0.77919364,0.6748557,0.0,0.31385216,0.75401217,0.62674916,0.0,0.10489056,1.0180469,0.8832697,0.0,0.095679276,1.083353,0.79818213,0.0,-0.07928048,0.84825534,852.6007,0.0,809.0842,846.9597,910.6227,0.0,0.0,0.17950439453125,0.08465576171875,0.9515380859375,3.072967529296875,6.65435791015625,5.36834716796875,13378095.238095235,100579487.17948718,37440293.04029304,70.09482,1.0,1.0,4.0,1.0,1.0,40.0,/muse/elements/jaw_clench,0 days 00:00:00.002000
2023-11-16 11:40:53.032,0.52334934,0.0,0.9967711,0.77919364,0.6748557,0.0,0.31385216,0.75401217,0.62674916,0.0,0.10489056,1.0180469,0.8832697,0.0,0.095679276,1.083353,0.79818213,0.0,-0.07928048,0.84825534,803.0403,260.69598,806.26373,807.0696,895.7143,0.0,0.0,0.17950439453125,0.08465576171875,0.9515380859375,3.072967529296875,6.65435791015625,5.36834716796875,13378095.238095235,100579487.17948718,37440293.04029304,70.09482,1.0,1.0,4.0,1.0,1.0,40.0,/muse/elements/jaw_clench,0 days 00:00:00.001000
2023-11-16 11:40:53.032,0.52334934,0.0,0.9967711,0.77919364,0.6748557,0.0,0.31385216,0.75401217,0.62674916,0.0,0.10489056,1.0180469,0.8832697,0.0,0.095679276,1.083353,0.79818213,0.0,-0.07928048,0.84825534,803.44324,558.0586,799.011,791.3553,719.2308,0.0,0.0,0.17950439453125,0.08465576171875,0.9515380859375,3.072967529296875,6.65435791015625,5.36834716796875,13378095.238095235,100579487.17948718,37440293.04029304,70.09482,1.0,1.0,4.0,1.0,1.0,40.0,/muse/elements/jaw_clench,0 days 00:00:00
2023-11-16 11:40:53.032,0.52334934,0.0,0.9967711,0.77919364,0.6748557,0.0,0.31385216,0.75401217,0.62674916,0.0,0.10489056,1.0180469,0.8832697,0.0,0.095679276,1.083353,0.79818213,0.0,-0.07928048,0.84825534,832.4542,375.53113,806.26373,831.6484,771.6117,0.0,0.0,0.17950439453125,0.08465576171875,0.9515380859375,3.072967529296875,6.65435791015625,5.36834716796875,13378095.238095235,100579487.17948718,37440293.04029304,70.09482,1.0,1.0,4.0,1.0,1.0,40.0,/muse/elements/jaw_clench,0 days 00:00:00
2023-11-16 11:40:53.033,0.52334934,0.0,0.9967711,0.77919364,0.6748557,0.0,0.31385216,0.75401217,0.62674916,0.0,0.10489056,1.0180469,0.8832697,0.0,0.095679276,1.083353,0.79818213,0.0,-0.07928048,0.84825534,779.67035,222.82051,813.91943,814.3223,836.08057,0.0,0.0,0.17950439453125,0.08465576171875,0.9515380859375,3.072967529296875,6.65435791015625,5.36834716796875,13378095.238095235,100579487.17948718,37440293.04029304,70.09482,1.0,1.0,4.0,1.0,1.0,40.0,/muse/elements/jaw_clench,0 days 00:00:00.001000
2023-11-16 11:40:53.033,0.52334934,0.0,0.9967711,0.77919364,0.6748557,0.0,0.31385216,0.75401217,0.62674916,0.0,0.10489056,1.0180469,0.8832697,0.0,0.095679276,1.083353,0.79818213,0.0,-0.07928048,0.84825534,786.9231,275.20148,819.15753,808.2784,761.13556,0.0,0.0,0.17950439453125,0.08465576171875,0.9515380859375,3.072967529296875,6.65435791015625,5.36834716796875,13378095.238095235,100579487.17948718,37440293.04029304,70.09482,1.0,1.0,4.0,1.0,1.0,40.0,/muse/elements/jaw_clench,0 days 00:00:00
2023-11-16 11:40:53.060,0.52334934,0.0,0.9967711,0.77919364,0.6748557,0.0,0.31385216,0.75401217,0.62674916,0.0,0.10489056,1.0180469,0.8832697,0.0,0.095679276,1.083353,0.79818213,0.0,-0.07928048,0.84825534,805.05493,281.64835,813.1135,813.5165,656.3736,0.0,0.0,0.15362548828125,0.06591796875,0.93115234375,11.43951416015625,22.17620849609375,-3.7384033203125,14177509.157509156,100623003.66300364,37474945.05494505,70.09482,1.0,1.0,4.0,1.0,1.0,40.0,/muse/elements/jaw_clench,0 days 00:00:00.027000
2023-11-16 11:40:53.061,0.52334934,0.0,0.9967711,0.77919364,0.6748557,0.0,0.31385216,0.75401217,0.62674916,0.0,0.10489056,1.0180469,0.8832697,0.0,0.095679276,1.083353,0.79818213,0.0,-0.07928048,0.84825534,801.8315,248.60806,812.71063,792.5641,759.5238,0.0,0.0,0.15362548828125,0.06591796875,0.93115234375,11.43951416015625,22.17620849609375,-3.7384033203125,14177509.157509156,100623003.66300364,37474945.05494505,70.09482,1.0,1.0,4.0,1.0,1.0,40.0,/muse/elements/jaw_clench,0 days 00:00:00.001000
2023-11-16 11:40:53.061,0.52334934,0.0,0.9967711,0.77919364,0.6748557,0.0,0.31385216,0.75401217,0.62674916,0.0,0.10489056,1.0180469,0.8832697,0.0,0.095679276,1.083353,0.79818213,0.0,-0.07928048,0.84825534,825.6044,161.97803,815.5311,810.696,844.5421,0.0,0.0,0.15362548828125,0.06591796875,0.93115234375,11.43951416015625,22.17620849609375,-3.7384033203125,14177509.157509156,100623003.66300364,37474945.05494505,70.09482,1.0,1.0,4.0,1.0,1.0,40.0,/muse/elements/jaw_clench,0 days 00:00:00
2023-11-16 11:40:53.061,0.52334934,0.0,0.9967711,0.77919364,0.6748557,0.0,0.31385216,0.75401217,0.62674916,0.0,0.10489056,1.0180469,0.8832697,0.0,0.095679276,1.083353,0.79818213,0.0,-0.07928048,0.84825534,786.1172,470.2198,809.0842,801.02563,743.4066,0.0,0.0,0.15362548828125,0.06591796875,0.93115234375,11.43951416015625,22.17620849609375,-3.7384033203125,14177509.157509156,100623003.66300364,37474945.05494505,70.09482,1.0,1.0,4.0,1.0,1.0,40.0,/muse/elements/jaw_clench,0 days 00:00:00
2023-11-16 11:40:53.062,0.52334934,0.0,0.9967711,0.77919364,0.6748557,0.0,0.31385216,0.75401217,0.62674916,0.0,0.10489056,1.0180469,0.8832697,0.0,0.095679276,1.083353,0.79818213,0.0,-0.07928048,0.84825534,763.5531,533.8828,810.293,774.43225,672.0879,0.0,0.0,0.15362548828125,0.06591796875,0.93115234375,11.43951416015625,22.17620849609375,-3.7384033203125,14177509.157509156,100623003.66300364,37474945.05494505,70.09482,1.0,1.0,4.0,1.0,1.0,40.0,/muse/elements/jaw_clench,0 days 00:00:00.001000
2023-11-16 11:40:53.062,0.52334934,0.0,0.9967711,0.77919364,0.6748557,0.0,0.31385216,0.75401217,0.62674916,0.0,0.10489056,1.0180469,0.8832697,0.0,0.095679276,1.083353,0.79818213,0.0,-0.07928048,0.84825534,795.78754,221.61172,814.7253,809.0842,865.89746,0.0,0.0,0.15362548828125,0.06591796875,0.93115234375,11.43951416015625,22.17620849609375,-3.7384033203125,14177509.157509156,100623003.66300364,37474945.05494505,70.09482,1.0,1.0,4.0,1.0,1.0,40.0,/muse/elements/jaw_clench,0 days 00:00:00
2023-11-16 11:40:53.062,0.52334934,0.0,0.9967711,0.77919364,0.6748557,0.0,0.31385216,0.75401217,0.62674916,0.0,0.10489056,1.0180469,0.8832697,0.0,0.095679276,1.083353,0.79818213,0.0,-0.07928048,0.84825534,800.6227,45.531136,815.12823,816.7399,1026.6666,0.0,0.0,0.15362548828125,0.06591796875,0.93115234375,11.43951416015625,22.17620849609375,-3.7384033203125,14177509.157509156,100623003.66300364,37474945.05494505,70.09482,1.0,1.0,4.0,1.0,1.0,40.0,/muse/elements/jaw_clench,0 days 00:00:00
2023-11-16 11:40:53.063,0.52334934,0.0,0.9967711,0.77919364,0.6748557,0.0,0.31385216,0.75401217,0.62674916,0.0,0.10489056,1.0180469,0.8832697,0.0,0.095679276,1.083353,0.79818213,0.0,-0.07928048,0.84825534,771.2088,388.02197,802.23444,786.9231,861.8681,0.0,0.0,0.15362548828125,0.06591796875,0.93115234375,11.43951416015625,22.17620849609375,-3.7384033203125,14177509.157509156,100623003.66300364,37474945.05494505,70.09482,1.0,1.0,4.0,1.0,1.0,40.0,/muse/elements/jaw_clench,0 days 00:00:00.001000
2023-11-16 11:40:53.063,0.52334934,0.0,0.9967711,0.77919364,0.6748557,0.0,0.31385216,0.75401217,0.62674916,0.0,0.10489056,1.0180469,0.8832697,0.0,0.095679276,1.083353,0.79818213,0.0,-0.07928048,0.84825534,763.1502,694.65204,798.60803,776.04395,734.1392,0.0,0.0,0.15362548828125,0.06591796875,0.93115234375,11.43951416015625,22.17620849609375,-3.7384033203125,14177509.157509156,100623003.66300364,37474945.05494505,70.09482,1.0,1.0,4.0,1.0,1.0,40.0,/muse/elements/jaw_clench,0 days 00:00:00
2023-11-16 11:40:53.064,0.52334934,0.0,0.9967711,0.77919364,0.6748557,0.0,0.31385216,0.75401217,0.62674916,0.0,0.10489056,1.0180469,0.8832697,0.0,0.095679276,1.083353,0.79818213,0.0,-0.07928048,0.84825534,800.2198,296.95972,810.293,815.12823,906.5934,0.0,0.0,0.15362548828125,0.06591796875,0.93115234375,11.43951416015625,22.17620849609375,-3.7384033203125,14177509.157509156,100623003.66300364,37474945.05494505,70.09482,1.0,1.0,4.0,1.0,1.0,40.0,/muse/elements/jaw_clench,0 days 00:00:00.001000
2023-11-16 11:40:53.064,0.52334934,0.0,0.9967711,0.77919364,0.6748557,0.0,0.31385216,0.75401217,0.62674916,0.0,0.10489056,1.0180469,0.8832697,0.0,0.095679276,1.083353,0.79818213,0.0,-0.07928048,0.84825534,825.2015,109.59707,807.8755,840.5128,1008.1319,0.0,0.0,0.15362548828125,0.06591796875,0.93115234375,11.43951416015625,22.17620849609375,-3.7384033203125,14177509.157509156,100623003.66300364,37474945.05494505,70.09482,1.0,1.0,4.0,1.0,1.0,40.0,/muse/elements/jaw_clench,0 days 00:00:00
2023-11-16 11:40:53.065,0.52334934,0.0,0.9967711,0.77919364,0.6748557,0.0,0.31385216,0.75401217,0.62674916,0.0,0.10489056,1.0180469,0.8832697,0.0,0.095679276,1.083353,0.79818213,0.0,-0.07928048,0.84825534,796.99634,634.21246,791.75824,789.7436,793.7729,0.0,0.0,0.15362548828125,0.06591796875,0.93115234375,11.43951416015625,22.17620849609375,-3.7384033203125,14177509.157509156,100623003.66300364,37474945.05494505,70.09482,1.0,1.0,4.0,1.0,1.0,40.0,/muse/elements/jaw_clench,0 days 00:00:00.001000
2023-11-16 11:40:53.129,0.52334934,0.0,0.9967711,0.77919364,0.6748557,0.0,0.31385216,0.75401217,0.62674916,0.0,0.10489056,1.0180469,0.8832697,0.0,0.095679276,1.083353,0.79818213,0.0,-0.07928048,0.84825534,778.86444,684.17584,792.5641,782.0879,721.6484,0.0,0.0,0.15362548828125,0.06591796875,0.93115234375,11.43951416015625,22.17620849609375,-3.7384033203125,14177509.157509156,100623003.66300364,37474945.05494505,70.09482,1.0,1.0,4.0,1.0,1.0,40.0,/muse/elements/jaw_clench,0 days 00:00:00.064000
2023-11-16 11:40:53.130,0.52334934,0.0,0.9967711,0.77919364,0.6748557,0.0,0.31385216,0.75401217,0.62674916,0.0,0.10489056,1.0180469,0.8832697,0.0,0.095679276,1.083353,0.79818213,0.0,-0.07928048,0.84825534,787.72894,466.99634,794.9817,800.2198,783.2967,0.0,0.0,0.15362548828125,0.06591796875,0.93115234375,11.43951416015625,22.17620849609375,-3.7384033203125,14177509.157509156,100623003.66300364,37474945.05494505,70.09482,1.0,1.0,4.0,1.0,1.0,40.0,/muse/elements/jaw_clench,0 days 00:00:00.001000
2023-11-16 11:40:53.131,0.52334934,0.0,0.9967711,0.77919364,0.6748557,0.0,0.31385216,0.75401217,0.62674916,0.0,0.10489056,1.0180469,0.8832697,0.0,0.095679276,1.083353,0.79818213,0.0,-0.07928048,0.84825534,787.72894,433.95605,800.2198,804.2491,821.1722,0.0,0.0,0.15362548828125,0.06591796875,0.93115234375,11.43951416015625,22.17620849609375,-3.7384033203125,14177509.157509156,100623003.66300364,37474945.05494505,70.09482,1.0,1.0,4.0,1.0,1.0,40.0,/muse/elements/jaw_clench,0 days 00:00:00.001000
2023-11-16 11:40:53.131,0.52334934,0.0,0.9967711,0.77919364,0.6748557,0.0,0.31385216,0.75401217,0.62674916,0.0,0.10489056,1.0180469,0.8832697,0.0,0.095679276,1.083353,0.79818213,0.0,-0.07928048,0.84825534,806.26373,498.82785,799.81683,794.9817,743.4066,0.0,0.0,0.15362548828125,0.06591796875,0.93115234375,11.43951416015625,22.17620849609375,-3.7384033203125,14177509.157509156,100623003.66300364,37474945.05494505,70.09482,1.0,1.0,4.0,1.0,1.0,40.0,/muse/elements/jaw_clench,0 days 00:00:00
2023-11-16 11:40:53.132,0.52334934,0.0,0.9967711,0.77919364,0.6748557,0.0,0.31385216,0.75401217,0.62674916,0.0,0.10489056,1.0180469,0.8832697,0.0,0.095679276,1.083353,0.79818213,0.0,-0.07928048,0.84825534,820.3663,633.8095,794.9817,796.99634,726.08057,0.0,0.0,0.15362548828125,0.06591796875,0.93115234375,11.43951416015625,22.17620849609375,-3.7384033203125,14177509.157509156,100623003.66300364,37474945.05494505,70.09482,1.0,1.0,4.0,1.0,1.0,40.0,/muse/elements/jaw_clench,0 days 00:00:00.001000
2023-11-16 11:40:53.132,0.52334934,0.0,0.9967711,0.77919364,0.6748557,0.0,0.31385216,0.75401217,0.62674916,0.0,0.10489056,1.0180469,0.8832697,0.0,0.095679276,1.083353,0.79818213,0.0,-0.07928048,0.84825534,792.5641,258.6813,805.05493,832.0513,914.2491,0.0,0.0,0.15362548828125,0.06591796875,0.93115234375,11.43951416015625,22.17620849609375,-3.7384033203125,14177509.157509156,100623003.66300364,37474945.05494505,70.09482,1.0,1.0,4.0,1.0,1.0,40.0,/muse/elements/jaw_clench,0 days 00:00:00
2023-11-16 11:40:53.132,0.52334934,0.0,0.9967711,0.77919364,0.6748557,0.0,0.31385216,0.75401217,0.62674916,0.0,0.10489056,1.0180469,0.8832697,0.0,0.095679276,1.083353,0.79818213,0.0,-0.07928048,0.84825534,760.7326,143.0403,803.0403,846.55676,928.7546,0.0,0.0,0.15362548828125,0.06591796875,0.93115234375,11.43951416015625,22.17620849609375,-3.7384033203125,14177509.157509156,100623003.66300364,37474945.05494505,70.09482,1.0,1.0,4.0,1.0,1.0,40.0,/muse/elements/jaw_clench,0 days 00:00:00
2023-11-16 11:40:53.133,0.52334934,0.0,1.0565718,0.77919364,0.6748557,0.0,0.40778247,0.75401217,0.62674916,0.0,0.12858208,1.0180469,0.8832697,0.0,0.08618261,1.083353,0.79818213,0.0,-0.087822296,0.84825534,788.5348,645.4945,787.72894,806.26373,737.76556,0.0,0.0,0.15362548828125,0.06591796875,0.93115234375,11.43951416015625,22.17620849609375,-3.7384033203125,14177509.157509156,100623003.66300364,37474945.05494505,70.09482,1.0,1.0,4.0,1.0,1.0,40.0,/muse/elements/jaw_clench,0 days 00:00:00.001000
2023-11-16 11:40:53.135,0.52334934,0.0,1.0565718,0.77919364,0.6748557,0.0,0.40778247,0.75401217,0.62674916,0.0,0.12858208,1.0180469,0.8832697,0.0,0.08618261,1.083353,0.79818213,0.0,-0.087822296,0.84825534,796.1905,714.7985,786.1172,804.65204,793.7729,0.0,0.0,0.15362548828125,0.06591796875,0.93115234375,11.43951416015625,22.17620849609375,-3.7384033203125,14177509.157509156,100623003.66300364,37474945.05494505,70.09482,1.0,1.0,4.0,1.0,1.0,40.0,/muse/elements/jaw_clench,0 days 00:00:00.002000
2023-11-16 11:40:53.135,0.52334934,0.0,1.0565718,0.77919364,0.6748557,0.0,0.40778247,0.75401217,0.62674916,0.0,0.12858208,1.0180469,0.8832697,0.0,0.08618261,1.083353,0.79818213,0.0,-0.087822296,0.84825534,802.23444,333.62637,794.17584,834.0659,927.9487,0.0,0.0,0.15362548828125,0.06591796875,0.93115234375,11.43951416015625,22.17620849609375,-3.7384033203125,14177509.157509156,100623003.66300364,37474945.05494505,70.09482,1.0,1.0,4.0,1.0,1.0,40.0,/muse/elements/jaw_clench,0 days 00:00:00
2023-11-16 11:40:53.136,0.52334934,0.0,1.0565718,0.77919364,0.6748557,0.0,0.40778247,0.75401217,0.62674916,0.0,0.12858208,1.0180469,0.8832697,0.0,0.08618261,1.083353,0.79818213,0.0,-0.087822296,0.84825534,840.10986,544.7619,788.1319,817.9487,827.619,0.0,0.0,0.15362548828125,0.06591796875,0.93115234375,11.43951416015625,22.17620849609375,-3.7384033203125,14177509.157509156,100623003.66300364,37474945.05494505,70.09482,1.0,1.0,4.0,1.0,1.0,40.0,/muse/elements/jaw_clench,0 days 00:00:00.001000
2023-11-16 11:40:53.136,0.52334934,0.0,1.0565718,0.77919364,0.6748557,0.0,0.40778247,0.75401217,0.62674916,0.0,0.12858208,1.0180469,0.8832697,0.0,0.08618261,1.083353,0.79818213,0.0,-0.087822296,0.84825534,824.3956,904.57874,781.685,818.3516,750.2564,0.0,0.0,0.15362548828125,0.06591796875,0.93115234375,11.43951416015625,22.17620849609375,-3.7384033203125,14177509.157509156,100623003.66300364,37474945.05494505,70.09482,1.0,1.0,4.0,1.0,1.0,40.0,/muse/elements/jaw_clench,0 days 00:00:00
2023-11-16 11:40:53.176,0.52334934,0.0,1.0565718,0.77919364,0.6748557,0.0,0.40778247,0.75401217,0.62674916,0.0,0.12858208,1.0180469,0.8832697,0.0,0.08618261,1.083353,0.79818213,0.0,-0.087822296,0.84825534,811.0989,639.0476,792.5641,839.707,802.6374,0.0,0.0,0.11810302734375,0.09954833984375,1.01904296875,19.058380126953125,27.148284912109375,-19.30511474609375,15225128.205128204,100754358.97435898,37498315.01831502,70.09482,1.0,1.0,4.0,1.0,1.0,40.0,/muse/elements/jaw_clench,0 days 00:00:00.040000
2023-11-16 11:40:53.177,0.52334934,0.0,1.0565718,0.77919364,0.6748557,0.0,0.40778247,0.75401217,0.62674916,0.0,0.12858208,1.0180469,0.8832697,0.0,0.08618261,1.083353,0.79818213,0.0,-0.087822296,0.84825534,799.81683,569.7436,796.1905,834.0659,844.5421,0.0,0.0,0.11810302734375,0.09954833984375,1.01904296875,19.058380126953125,27.148284912109375,-19.30511474609375,15225128.205128204,100754358.97435898,37498315.01831502,70.09482,1.0,1.0,4.0,1.0,1.0,40.0,/muse/elements/jaw_clench,0 days 00:00:00.001000
2023-11-16 11:40:53.178,0.52334934,0.0,1.0565718,0.77919364,0.6748557,0.0,0.40778247,0.75401217,0.62674916,0.0,0.12858208,1.0180469,0.8832697,0.0,0.08618261,1.083353,0.79818213,0.0,-0.087822296,0.84825534,802.23444,875.56775,789.7436,820.7692,838.49817,0.0,0.0,0.11810302734375,0.09954833984375,1.01904296875,19.058380126953125,27.148284912109375,-19.30511474609375,15225128.205128204,100754358.97435898,37498315.01831502,70.09482,1.0,1.0,4.0,1.0,1.0,40.0,/muse/elements/jaw_clench,0 days 00:00:00.001000
2023-11-16 11:40:53.178,0.52334934,0.0,1.0565718,0.77919364,0.6748557,0.0,0.40778247,0.75401217,0.62674916,0.0,0.12858208,1.0180469,0.8832697,0.0,0.08618261,1.083353,0.79818213,0.0,-0.087822296,0.84825534,788.1319,934.7985,794.9817,849.7802,794.9817,0.0,0.0,0.11810302734375,0.09954833984375,1.01904296875,19.058380126953125,27.148284912109375,-19.30511474609375,15225128.205128204,100754358.97435898,37498315.01831502,70.09482,1.0,1.0,4.0,1.0,1.0,40.0,/muse/elements/jaw_clench,0 days 00:00:00
2023-11-16 11:40:53.178,0.52334934,0.0,1.0565718,0.77919364,0.6748557,0.0,0.40778247,0.75401217,0.62674916,0.0,0.12858208,1.0180469,0.8832697,0.0,0.08618261,1.083353,0.79818213,0.0,-0.087822296,0.84825534,784.5055,647.50916,806.6667,875.9707,830.84247,0.0,0.0,0.11810302734375,0.09954833984375,1.01904296875,19.058380126953125,27.148284912109375,-19.30511474609375,15225128.205128204,100754358.97435898,37498315.01831502,70.09482,1.0,1.0,4.0,1.0,1.0,40.0,/muse/elements/jaw_clench,0 days 00:00:00
2023-11-16 11:40:53.179,0.52334934,0.0,1.0565718,0.77919364,0.6748557,0.0,0.40778247,0.75401217,0.62674916,0.0,0.12858208,1.0180469,0.8832697,0.0,0.08618261,1.083353,0.79818213,0.0,-0.087822296,0.84825534,833.2601,382.78387,798.60803,847.76556,886.04395,0.0,0.0,0.11810302734375,0.09954833984375,1.01904296875,19.058380126953125,27.148284912109375,-19.30511474609375,15225128.205128204,100754358.97435898,37498315.01831502,70.09482,1.0,1.0,4.0,1.0,1.0,40.0,/muse/elements/jaw_clench,0 days 00:00:00.001000
2023-11-16 11:40:53.179,0.52334934,0.0,1.0565718,0.77919364,0.6748557,0.0,0.40778247,0.75401217,0.62674916,0.0,0.12858208,1.0180469,0.8832697,0.0,0.08618261,1.083353,0.79818213,0.0,-0.087822296,0.84825534,824.3956,496.00732,788.1319,793.36993,897.326,0.0,0.0,0.11810302734375,0.09954833984375,1.01904296875,19.058380126953125,27.148284912109375,-19.30511474609375,15225128.205128204,100754358.97435898,37498315.01831502,70.09482,1.0,1.0,4.0,1.0,1.0,40.0,/muse/elements/jaw_clench,0 days 00:00:00
2023-11-16 11:40:53.180,0.52334934,0.0,1.0565718,0.77919364,0.6748557,0.0,0.40778247,0.75401217,0.62674916,0.0,0.12858208,1.0180469,0.8832697,0.0,0.08618261,1.083353,0.79818213,0.0,-0.087822296,0.84825534,812.3077,577.3993,792.1612,783.2967,847.3626,0.0,0.0,0.11810302734375,0.09954833984375,1.01904296875,19.058380126953125,27.148284912109375,-19.30511474609375,15225128.205128204,100754358.97435898,37498315.01831502,70.09482,1.0,1.0,4.0,1.0,1.0,40.0,/muse/elements/jaw_clench,0 days 00:00:00.001000
2023-11-16 11:40:53.180,0.52334934,0.0,1.0565718,0.77919364,0.6748557,0.0,0.40778247,0.75401217,0.62674916,0.0,0.12858208,1.0180469,0.8832697,0.0,0.08618261,1.083353,0.79818213,0.0,-0.087822296,0.84825534,819.5604,311.06226,803.8461,845.34796,941.2454,0.0,0.0,0.11810302734375,0.09954833984375,1.01904296875,19.058380126953125,27.148284912109375,-19.30511474609375,15225128.205128204,100754358.97435898,37498315.01831502,70.09482,1.0,1.0,4.0,1.0,1.0,40.0,/muse/elements/jaw_clench,0 days 00:00:00
2023-11-16 11:40:53.181,0.52334934,0.0,1.0565718,0.77919364,0.6748557,0.0,0.40778247,0.75401217,0.62674916,0.0,0.12858208,1.0180469,0.8832697,0.0,0.08618261,1.083353,0.79818213,0.0,-0.087822296,0.84825534,807.8755,70.91575,805.8608,857.8388,1055.6776,0.0,0.0,0.11810302734375,0.09954833984375,1.01904296875,19.058380126953125,27.148284912109375,-19.30511474609375,15225128.205128204,100754358.97435898,37498315.01831502,70.09482,1.0,1.0,4.0,1.0,1.0,40.0,/muse/elements/jaw_clench,0 days 00:00:00.001000
2023-11-16 11:40:53.181,0.52334934,0.0,1.0565718,0.77919364,0.6748557,0.0,0.40778247,0.75401217,0.62674916,0.0,0.12858208,1.0180469,0.8832697,0.0,0.08618261,1.083353,0.79818213,0.0,-0.087822296,0.84825534,792.1612,623.73627,795.38464,800.2198,945.6777,0.0,0.0,0.11810302734375,0.09954833984375,1.01904296875,19.058380126953125,27.148284912109375,-19.30511474609375,15225128.205128204,100754358.97435898,37498315.01831502,70.09482,1.0,1.0,4.0,1.0,1.0,40.0,/muse/elements/jaw_clench,0 days 00:00:00
2023-11-16 11:40:53.181,0.52334934,0.0,1.0565718,0.77919364,0.6748557,0.0,0.40778247,0.75401217,0.62674916,0.0,0.12858208,1.0180469,0.8832697,0.0,0.08618261,1.083353,0.79818213,0.0,-0.087822296,0.84825534,806.26373,1096.3737,797.3993,799.41394,895.7143,0.0,0.0,0.11810302734375,0.09954833984375,1.01904296875,19.058380126953125,27.148284912109375,-19.30511474609375,15225128.205128204,100754358.97435898,37498315.01831502,70.09482,1.0,1.0,4.0,1.0,1.0,40.0,/muse/elements/jaw_clench,0 days 00:00:00
2023-11-16 11:40:53.209,0.52334934,0.0,1.0565718,0.77919364,0.6748557,0.0,0.40778247,0.75401217,0.62674916,0.0,0.12858208,1.0180469,0.8832697,0.0,0.08618261,1.083353,0.79818213,0.0,-0.087822296,0.84825534,825.2015,472.23444,806.6667,856.63007,958.97437,0.0,0.0,0.13348388671875,0.14215087890625,1.05328369140625,6.160888671875,9.562835693359377,-11.880645751953123,15225128.205128204,100754358.97435898,37498315.01831502,70.09482,1.0,1.0,4.0,1.0,1.0,40.0,/muse/elements/jaw_clench,0 days 00:00:00.028000
2023-11-16 11:40:53.209,0.52334934,0.0,1.0565718,0.77919364,0.6748557,0.0,0.40778247,0.75401217,0.62674916,0.0,0.12858208,1.0180469,0.8832697,0.0,0.08618261,1.083353,0.79818213,0.0,-0.087822296,0.84825534,813.91943,162.78389,804.2491,833.663,1037.9487,0.0,0.0,0.13348388671875,0.14215087890625,1.05328369140625,6.160888671875,9.562835693359377,-11.880645751953123,15225128.205128204,100754358.97435898,37498315.01831502,70.09482,1.0,1.0,4.0,1.0,1.0,40.0,/muse/elements/jaw_clench,0 days 00:00:00
2023-11-16 11:40:53.210,0.52334934,0.0,1.0565718,0.77919364,0.6748557,0.0,0.40778247,0.75401217,0.62674916,0.0,0.12858208,1.0180469,0.8832697,0.0,0.08618261,1.083353,0.79818213,0.0,-0.087822296,0.84825534,800.6227,873.1502,794.17584,796.99634,840.9158,0.0,0.0,0.13348388671875,0.14215087890625,1.05328369140625,6.160888671875,9.562835693359377,-11.880645751953123,15225128.205128204,100754358.97435898,37498315.01831502,70.09482,1.0,1.0,4.0,1.0,1.0,40.0,/muse/elements/jaw_clench,0 days 00:00:00.001000
2023-11-16 11:40:53.210,0.52334934,0.0,1.0565718,0.77919364,0.6748557,0.0,0.40778247,0.75401217,0.62674916,0.0,0.12858208,1.0180469,0.8832697,0.0,0.08618261,1.083353,0.79818213,0.0,-0.087822296,0.84825534,845.34796,956.1539,798.20514,827.619,785.7143,0.0,0.0,0.13348388671875,0.14215087890625,1.05328369140625,6.160888671875,9.562835693359377,-11.880645751953123,15225128.205128204,100754358.97435898,37498315.01831502,70.09482,1.0,1.0,4.0,1.0,1.0,40.0,/muse/elements/jaw_clench,0 days 00:00:00
2023-11-16 11:40:53.210,0.52334934,0.0,1.0565718,0.77919364,0.6748557,0.0,0.40778247,0.75401217,0.62674916,0.0,0.12858208,1.0180469,0.8832697,0.0,0.08618261,1.083353,0.79818213,0.0,-0.087822296,0.84825534,811.50183,760.32965,799.41394,843.73627,841.7216,0.0,0.0,0.13348388671875,0.14215087890625,1.05328369140625,6.160888671875,9.562835693359377,-11.880645751953123,15225128.205128204,100754358.97435898,37498315.01831502,70.09482,1.0,1.0,4.0,1.0,1.0,40.0,/muse/elements/jaw_clench,0 days 00:00:00
2023-11-16 11:40:53.211,0.52334934,0.0,1.0565718,0.77919364,0.6748557,0.0,0.40778247,0.75401217,0.62674916,0.0,0.12858208,1.0180469,0.8832697,0.0,0.08618261,1.083353,0.79818213,0.0,-0.087822296,0.84825534,741.79486,695.8608,798.60803,839.304,834.4689,0.0,0.0,0.13348388671875,0.14215087890625,1.05328369140625,6.160888671875,9.562835693359377,-11.880645751953123,15225128.205128204,100754358.97435898,37498315.01831502,70.09482,1.0,1.0,4.0,1.0,1.0,40.0,/muse/elements/jaw_clench,0 days 00:00:00.001000
2023-11-16 11:40:53.211,0.52334934,0.0,1.0565718,0.77919364,0.6748557,0.0,0.40778247,0.75401217,0.62674916,0.0,0.12858208,1.0180469,0.8832697,0.0,0.08618261,1.083353,0.79818213,0.0,-0.087822296,0.84825534,813.1135,583.8461,799.81683,833.2601,867.50916,0.0,0.0,0.13348388671875,0.14215087890625,1.05328369140625,6.160888671875,9.562835693359377,-11.880645751953123,15225128.205128204,100754358.97435898,37498315.01831502,70.09482,1.0,1.0,4.0,1.0,1.0,40.0,/muse/elements/jaw_clench,0 days 00:00:00
2023-11-16 11:40:53.212,0.52334934,0.0,1.0565718,0.77919364,0.6748557,0.0,0.40778247,0.75401217,0.62674916,0.0,0.12858208,1.0180469,0.8832697,0.0,0.08618261,1.083353,0.79818213,0.0,-0.087822296,0.84825534,868.71796,639.45056,794.9817,823.9927,840.9158,0.0,0.0,0.13348388671875,0.14215087890625,1.05328369140625,6.160888671875,9.562835693359377,-11.880645751953123,15225128.205128204,100754358.97435898,37498315.01831502,70.09482,1.0,1.0,4.0,1.0,1.0,40.0,/muse/elements/jaw_clench,0 days 00:00:00.001000
2023-11-16 11:40:53.212,0.52334934,0.0,1.0565718,0.77919364,0.6748557,0.0,0.40778247,0.75401217,0.62674916,0.0,0.12858208,1.0180469,0.8832697,0.0,0.08618261,1.083353,0.79818213,0.0,-0.087822296,0.84825534,844.5421,257.0696,796.1905,851.79486,950.9158,0.0,0.0,0.13348388671875,0.14215087890625,1.05328369140625,6.160888671875,9.562835693359377,-11.880645751953123,15225128.205128204,100754358.97435898,37498315.01831502,70.09482,1.0,1.0,4.0,1.0,1.0,40.0,/muse/elements/jaw_clench,0 days 00:00:00
2023-11-16 11:40:53.212,0.52334934,0.0,1.1147662,0.77919364,0.6748557,0.0,0.47397316,0.75401217,0.62674916,0.0,0.14793727,1.0180469,0.8832697,0.0,0.08980333,1.083353,0.79818213,0.0,-0.092094235,0.84825534,834.87177,217.17949,787.326,835.2747,1001.685,0.0,0.0,0.13348388671875,0.14215087890625,1.05328369140625,6.160888671875,9.562835693359377,-11.880645751953123,15225128.205128204,100754358.97435898,37498315.01831502,70.09482,1.0,1.0,4.0,1.0,1.0,40.0,/muse/elements/jaw_clench,0 days 00:00:00
2023-11-16 11:40:53.214,0.52334934,0.0,1.1147662,0.77919364,0.6748557,0.0,0.47397316,0.75401217,0.62674916,0.0,0.14793727,1.0180469,0.8832697,0.0,0.08980333,1.083353,0.79818213,0.0,-0.092094235,0.84825534,822.381,892.8938,778.0586,810.293,781.28204,0.0,0.0,0.13348388671875,0.14215087890625,1.05328369140625,6.160888671875,9.562835693359377,-11.880645751953123,15225128.205128204,100754358.97435898,37498315.01831502,70.09482,1.0,1.0,4.0,1.0,1.0,40.0,/muse/elements/jaw_clench,0 days 00:00:00.002000
2023-11-16 11:40:53.215,0.52334934,0.0,1.1147662,0.77919364,0.6748557,0.0,0.47397316,0.75401217,0.62674916,0.0,0.14793727,1.0180469,0.8832697,0.0,0.08980333,1.083353,0.79818213,0.0,-0.092094235,0.84825534,836.8865,792.96704,789.7436,840.5128,829.6337,0.0,0.0,0.13348388671875,0.14215087890625,1.05328369140625,6.160888671875,9.562835693359377,-11.880645751953123,15225128.205128204,100754358.97435898,37498315.01831502,70.09482,1.0,1.0,4.0,1.0,1.0,40.0,/muse/elements/jaw_clench,0 days 00:00:00.001000
2023-11-16 11:40:53.241,0.52334934,0.0,1.1147662,0.77919364,0.6748557,0.0,0.47397316,0.75401217,0.62674916,0.0,0.14793727,1.0180469,0.8832697,0.0,0.08980333,1.083353,0.79818213,0.0,-0.092094235,0.84825534,837.6923,501.24542,796.99634,846.55676,980.32965,0.0,0.0,0.110107421875,0.10931396484375,0.9534912109375,-2.773895263671875,-8.964691162109375,-2.086029052734375,15150989.01098901,100725347.985348,37472527.472527474,70.09482,1.0,1.0,4.0,1.0,1.0,40.0,/muse/elements/jaw_clench,0 days 00:00:00.026000
2023-11-16 11:40:53.241,0.52334934,0.0,1.1147662,0.77919364,0.6748557,0.0,0.47397316,0.75401217,0.62674916,0.0,0.14793727,1.0180469,0.8832697,0.0,0.08980333,1.083353,0.79818213,0.0,-0.092094235,0.84825534,755.4945,822.7839,793.7729,803.8461,877.5824,0.0,0.0,0.110107421875,0.10931396484375,0.9534912109375,-2.773895263671875,-8.964691162109375,-2.086029052734375,15150989.01098901,100725347.985348,37472527.472527474,70.09482,1.0,1.0,4.0,1.0,1.0,40.0,/muse/elements/jaw_clench,0 days 00:00:00
2023-11-16 11:40:53.242,0.52334934,0.0,1.1147662,0.77919364,0.6748557,0.0,0.47397316,0.75401217,0.62674916,0.0,0.14793727,1.0180469,0.8832697,0.0,0.08980333,1.083353,0.79818213,0.0,-0.092094235,0.84825534,801.02563,982.3443,799.41394,767.1795,801.8315,0.0,0.0,0.110107421875,0.10931396484375,0.9534912109375,-2.773895263671875,-8.964691162109375,-2.086029052734375,15150989.01098901,100725347.985348,37472527.472527474,70.09482,1.0,1.0,4.0,1.0,1.0,40.0,/muse/elements/jaw_clench,0 days 00:00:00.001000
2023-11-16 11:40:53.242,0.52334934,0.0,1.1147662,0.77919364,0.6748557,0.0,0.47397316,0.75401217,0.62674916,0.0,0.14793727,1.0180469,0.8832697,0.0,0.08980333,1.083353,0.79818213,0.0,-0.092094235,0.84825534,859.85345,743.00366,802.23444,828.022,863.47986,0.0,0.0,0.110107421875,0.10931396484375,0.9534912109375,-2.773895263671875,-8.964691162109375,-2.086029052734375,15150989.01098901,100725347.985348,37472527.472527474,70.09482,1.0,1.0,4.0,1.0,1.0,40.0,/muse/elements/jaw_clench,0 days 00:00:00
2023-11-16 11:40:53.242,0.52334934,0.0,1.1147662,0.77919364,0.6748557,0.0,0.47397316,0.75401217,0.62674916,0.0,0.14793727,1.0180469,0.8832697,0.0,0.08980333,1.083353,0.79818213,0.0,-0.092094235,0.84825534,810.696,618.49817,801.8315,831.2454,859.0476,0.0,0.0,0.110107421875,0.10931396484375,0.9534912109375,-2.773895263671875,-8.964691162109375,-2.086029052734375,15150989.01098901,100725347.985348,37472527.472527474,70.09482,1.0,1.0,4.0,1.0,1.0,40.0,/muse/elements/jaw_clench,0 days 00:00:00
2023-11-16 11:40:53.243,0.52334934,0.0,1.1147662,0.77919364,0.6748557,0.0,0.47397316,0.75401217,0.62674916,0.0,0.14793727,1.0180469,0.8832697,0.0,0.08980333,1.083353,0.79818213,0.0,-0.092094235,0.84825534,821.1722,615.2747,800.2198,778.0586,838.0952,0.0,0.0,0.110107421875,0.10931396484375,0.9534912109375,-2.773895263671875,-8.964691162109375,-2.086029052734375,15150989.01098901,100725347.985348,37472527.472527474,70.09482,1.0,1.0,4.0,1.0,1.0,40.0,/muse/elements/jaw_clench,0 days 00:00:00.001000
2023-11-16 11:40:53.243,0.52334934,0.0,1.1147662,0.77919364,0.6748557,0.0,0.47397316,0.75401217,0.62674916,0.0,0.14793727,1.0180469,0.8832697,0.0,0.08980333,1.083353,0.79818213,0.0,-0.092094235,0.84825534,765.9707,464.57877,802.6374,800.2198,839.707,0.0,0.0,0.110107421875,0.10931396484375,0.9534912109375,-2.773895263671875,-8.964691162109375,-2.086029052734375,15150989.01098901,100725347.985348,37472527.472527474,70.09482,1.0,1.0,4.0,1.0,1.0,40.0,/muse/elements/jaw_clench,0 days 00:00:00
2023-11-16 11:40:53.244,0.52334934,0.0,1.1147662,0.77919364,0.6748557,0.0,0.47397316,0.75401217,0.62674916,0.0,0.14793727,1.0180469,0.8832697,0.0,0.08980333,1.083353,0.79818213,0.0,-0.092094235,0.84825534,796.1905,211.53847,810.696,803.44324,904.9817,0.0,0.0,0.110107421875,0.10931396484375,0.9534912109375,-2.773895263671875,-8.964691162109375,-2.086029052734375,15150989.01098901,100725347.985348,37472527.472527474,70.09482,1.0,1.0,4.0,1.0,1.0,40.0,/muse/elements/jaw_clench,0 days 00:00:00.001000
2023-11-16 11:40:53.244,0.52334934,0.0,1.1147662,0.77919364,0.6748557,0.0,0.47397316,0.75401217,0.62674916,0.0,0.14793727,1.0180469,0.8832697,0.0,0.08980333,1.083353,0.79818213,0.0,-0.092094235,0.84825534,862.674,169.23077,797.8022,805.05493,942.8571,0.0,0.0,0.110107421875,0.10931396484375,0.9534912109375,-2.773895263671875,-8.964691162109375,-2.086029052734375,15150989.01098901,100725347.985348,37472527.472527474,70.09482,1.0,1.0,4.0,1.0,1.0,40.0,/muse/elements/jaw_clench,0 days 00:00:00
2023-11-16 11:40:53.244,0.52334934,0.0,1.1147662,0.77919364,0.6748557,0.0,0.47397316,0.75401217,0.62674916,0.0,0.14793727,1.0180469,0.8832697,0.0,0.08980333,1.083353,0.79818213,0.0,-0.092094235,0.84825534,797.8022,512.1245,790.14655,836.4835,866.7033,0.0,0.0,0.110107421875,0.10931396484375,0.9534912109375,-2.773895263671875,-8.964691162109375,-2.086029052734375,15150989.01098901,100725347.985348,37472527.472527474,70.09482,1.0,1.0,4.0,1.0,1.0,40.0,/muse/elements/jaw_clench,0 days 00:00:00
2023-11-16 11:40:53.245,0.52334934,0.0,1.1147662,0.77919364,0.6748557,0.0,0.47397316,0.75401217,0.62674916,0.0,0.14793727,1.0180469,0.8832697,0.0,0.08980333,1.083353,0.79818213,0.0,-0.092094235,0.84825534,814.7253,563.69965,798.20514,850.18317,760.32965,0.0,0.0,0.110107421875,0.10931396484375,0.9534912109375,-2.773895263671875,-8.964691162109375,-2.086029052734375,15150989.01098901,100725347.985348,37472527.472527474,70.09482,1.0,1.0,4.0,1.0,1.0,40.0,/muse/elements/jaw_clench,0 days 00:00:00.001000
2023-11-16 11:40:53.245,0.52334934,0.0,1.1147662,0.77919364,0.6748557,0.0,0.47397316,0.75401217,0.62674916,0.0,0.14793727,1.0180469,0.8832697,0.0,0.08980333,1.083353,0.79818213,0.0,-0.092094235,0.84825534,848.5714,284.46887,805.4579,809.4872,840.10986,0.0,0.0,0.110107421875,0.10931396484375,0.9534912109375,-2.773895263671875,-8.964691162109375,-2.086029052734375,15150989.01098901,100725347.985348,37472527.472527474,70.09482,1.0,1.0,4.0,1.0,1.0,40.0,/muse/elements/jaw_clench,0 days 00:00:00
2023-11-16 11:40:53.309,0.52334934,0.0,1.1147662,0.77919364,0.6748557,0.0,0.47397316,0.75401217,0.62674916,0.0,0.14793727,1.0180469,0.8832697,0.0,0.08980333,1.083353,0.79818213,0.0,-0.092094235,0.84825534,835.2747,162.38095,805.8608,780.87915,967.8388,0.0,0.0,0.15679931640625,0.117919921875,0.99627685546875,0.73272705078125,-18.31817626953125,-0.64300537109375,15150989.01098901,100725347.985348,37472527.472527474,70.09482,1.0,1.0,4.0,1.0,1.0,40.0,/muse/elements/jaw_clench,0 days 00:00:00.064000
2023-11-16 11:40:53.310,0.52334934,0.0,1.1147662,0.77919364,0.6748557,0.0,0.47397316,0.75401217,0.62674916,0.0,0.14793727,1.0180469,0.8832697,0.0,0.08980333,1.083353,0.79818213,0.0,-0.092094235,0.84825534,828.022,641.8681,790.14655,793.36993,786.9231,0.0,0.0,0.15679931640625,0.117919921875,0.99627685546875,0.73272705078125,-18.31817626953125,-0.64300537109375,15150989.01098901,100725347.985348,37472527.472527474,70.09482,1.0,1.0,4.0,1.0,1.0,40.0,/muse/elements/jaw_clench,0 days 00:00:00.001000
2023-11-16 11:40:53.310,0.52334934,0.0,1.1147662,0.77919364,0.6748557,0.0,0.47397316,0.75401217,0.62674916,0.0,0.14793727,1.0180469,0.8832697,0.0,0.08980333,1.083353,0.79818213,0.0,-0.092094235,0.84825534,823.1868,842.1245,794.9817,790.54944,740.18317,0.0,0.0,0.15679931640625,0.117919921875,0.99627685546875,0.73272705078125,-18.31817626953125,-0.64300537109375,15150989.01098901,100725347.985348,37472527.472527474,70.09482,1.0,1.0,4.0,1.0,1.0,40.0,/muse/elements/jaw_clench,0 days 00:00:00
2023-11-16 11:40:53.310,0.52334934,0.0,1.1147662,0.77919364,0.6748557,0.0,0.47397316,0.75401217,0.62674916,0.0,0.14793727,1.0180469,0.8832697,0.0,0.08980333,1.083353,0.79818213,0.0,-0.092094235,0.84825534,816.337,394.06595,804.65204,705.5311,864.68866,0.0,0.0,0.15679931640625,0.117919921875,0.99627685546875,0.73272705078125,-18.31817626953125,-0.64300537109375,15150989.01098901,100725347.985348,37472527.472527474,70.09482,1.0,1.0,4.0,1.0,1.0,40.0,/muse/elements/jaw_clench,0 days 00:00:00
2023-11-16 11:40:53.311,0.52334934,0.0,1.1147662,0.77919364,0.6748557,0.0,0.47397316,0.75401217,0.62674916,0.0,0.14793727,1.0180469,0.8832697,0.0,0.08980333,1.083353,0.79818213,0.0,-0.092094235,0.84825534,789.34064,433.15018,798.60803,722.8571,879.19415,0.0,0.0,0.15679931640625,0.117919921875,0.99627685546875,0.73272705078125,-18.31817626953125,-0.64300537109375,15150989.01098901,100725347.985348,37472527.472527474,70.09482,1.0,1.0,4.0,1.0,1.0,40.0,/muse/elements/jaw_clench,0 days 00:00:00.001000
2023-11-16 11:40:53.311,0.52334934,0.0,1.1147662,0.77919364,0.6748557,0.0,0.47397316,0.75401217,0.62674916,0.0,0.14793727,1.0180469,0.8832697,0.0,0.08980333,1.083353,0.79818213,0.0,-0.092094235,0.84825534,787.326,598.7546,799.41394,805.8608,788.5348,0.0,0.0,0.15679931640625,0.117919921875,0.99627685546875,0.73272705078125,-18.31817626953125,-0.64300537109375,15150989.01098901,100725347.985348,37472527.472527474,70.09482,1.0,1.0,4.0,1.0,1.0,40.0,/muse/elements/jaw_clench,0 days 00:00:00
2023-11-16 11:40:53.312,0.52334934,0.0,1.1147662,0.77919364,0.6748557,0.0,0.47397316,0.75401217,0.62674916,0.0,0.14793727,1.0180469,0.8832697,0.0,0.08980333,1.083353,0.79818213,0.0,-0.092094235,0.84825534,827.619,410.18314,801.4286,754.2857,747.4359,0.0,0.0,0.15679931640625,0.117919921875,0.99627685546875,0.73272705078125,-18.31817626953125,-0.64300537109375,15150989.01098901,100725347.985348,37472527.472527474,70.09482,1.0,1.0,4.0,1.0,1.0,40.0,/muse/elements/jaw_clench,0 days 00:00:00.001000
2023-11-16 11:40:53.312,0.52334934,0.0,1.1147662,0.77919364,0.6748557,0.0,0.47397316,0.75401217,0.62674916,0.0,0.14793727,1.0180469,0.8832697,0.0,0.08980333,1.083353,0.79818213,0.0,-0.092094235,0.84825534,819.5604,128.5348,809.0842,763.5531,934.3956,0.0,0.0,0.15679931640625,0.117919921875,0.99627685546875,0.73272705078125,-18.31817626953125,-0.64300537109375,15150989.01098901,100725347.985348,37472527.472527474,70.09482,1.0,1.0,4.0,1.0,1.0,40.0,/muse/elements/jaw_clench,0 days 00:00:00
2023-11-16 11:40:53.313,0.52334934,0.0,1.1147662,0.77919364,0.6748557,0.0,0.47397316,0.75401217,0.62674916,0.0,0.14793727,1.0180469,0.8832697,0.0,0.08980333,1.083353,0.79818213,0.0,-0.092094235,0.84825534,794.17584,335.64102,801.4286,801.4286,952.52747,0.0,0.0,0.15679931640625,0.117919921875,0.99627685546875,0.73272705078125,-18.31817626953125,-0.64300537109375,15150989.01098901,100725347.985348,37472527.472527474,70.09482,1.0,1.0,4.0,1.0,1.0,40.0,/muse/elements/jaw_clench,0 days 00:00:00.001000
2023-11-16 11:40:53.313,0.52334934,0.0,1.1147662,0.77919364,0.6748557,0.0,0.47397316,0.75401217,0.62674916,0.0,0.14793727,1.0180469,0.8832697,0.0,0.08980333,1.083353,0.79818213,0.0,-0.092094235,0.84825534,767.1795,920.696,788.1319,777.6557,809.4872,0.0,0.0,0.15679931640625,0.117919921875,0.99627685546875,0.73272705078125,-18.31817626953125,-0.64300537109375,15150989.01098901,100725347.985348,37472527.472527474,70.09482,1.0,1.0,4.0,1.0,1.0,40.0,/muse/elements/jaw_clench,0 days 00:00:00
2023-11-16 11:40:53.313,0.52334934,0.0,1.1147662,0.77919364,0.6748557,0.0,0.47397316,0.75401217,0.62674916,0.0,0.14793727,1.0180469,0.8832697,0.0,0.08980333,1.083353,0.79818213,0.0,-0.092094235,0.84825534,776.04395,759.5238,791.75824,759.92676,869.12085,0.0,0.0,0.15679931640625,0.117919921875,0.99627685546875,0.73272705078125,-18.31817626953125,-0.64300537109375,15150989.01098901,100725347.985348,37472527.472527474,70.09482,1.0,1.0,4.0,1.0,1.0,40.0,/muse/elements/jaw_clench,0 days 00:00:00
2023-11-16 11:40:53.315,0.52334934,0.0,1.1147662,0.77919364,0.6748557,0.0,0.47397316,0.75401217,0.62674916,0.0,0.14793727,1.0180469,0.8832697,0.0,0.08980333,1.083353,0.79818213,0.0,-0.092094235,0.84825534,776.04395,759.5238,791.75824,759.92676,869.12085,0.0,0.0,0.15679931640625,0.117919921875,0.99627685546875,0.73272705078125,-18.31817626953125,-0.64300537109375,15150989.01098901,100725347.985348,37472527.472527474,70.09482,1.0,1.0,4.0,1.0,1.0,40.0,/muse/elements/jaw_clench,0 days 00:00:00.002000
2023-11-16 11:40:53.314,0.52334934,0.0,1.1557771,0.77919364,0.6748557,0.0,0.51050144,0.75401217,0.62674916,0.0,0.19973473,1.0180469,0.8832697,0.0,0.10914398,1.083353,0.79818213,0.0,-0.09792594,0.84825534,816.337,604.3956,786.9231,727.6923,840.9158,0.0,0.0,0.15679931640625,0.117919921875,0.99627685546875,0.73272705078125,-18.31817626953125,-0.64300537109375,15150989.01098901,100725347.985348,37472527.472527474,70.09482,1.0,1.0,4.0,1.0,1.0,40.0,/muse/elements/jaw_clench,-1 days +23:59:59.999000
2023-11-16 11:40:53.358,0.52334934,0.0,1.1557771,0.77919364,0.6748557,0.0,0.51050144,0.75401217,0.62674916,0.0,0.19973473,1.0180469,0.8832697,0.0,0.10914398,1.083353,0.79818213,0.0,-0.09792594,0.84825534,785.31134,811.9048,787.72894,735.7509,773.22345,0.0,0.0,0.15679931640625,0.117919921875,0.99627685546875,0.73272705078125,-18.31817626953125,-0.64300537109375,14178315.018315015,100750329.67032968,37474945.05494505,70.09482,1.0,1.0,4.0,1.0,1.0,40.0,/muse/elements/jaw_clench,0 days 00:00:00.044000
2023-11-16 11:40:53.359,0.52334934,0.0,1.1557771,0.77919364,0.6748557,0.0,0.51050144,0.75401217,0.62674916,0.0,0.19973473,1.0180469,0.8832697,0.0,0.10914398,1.083353,0.79818213,0.0,-0.09792594,0.84825534,785.31134,882.4176,792.1612,773.22345,737.76556,0.0,0.0,0.15679931640625,0.117919921875,0.99627685546875,0.73272705078125,-18.31817626953125,-0.64300537109375,14178315.018315015,100750329.67032968,37474945.05494505,70.09482,1.0,1.0,4.0,1.0,1.0,40.0,/muse/elements/jaw_clench,0 days 00:00:00.001000
2023-11-16 11:40:53.359,0.52334934,0.0,1.1557771,0.77919364,0.6748557,0.0,0.51050144,0.75401217,0.62674916,0.0,0.19973473,1.0180469,0.8832697,0.0,0.10914398,1.083353,0.79818213,0.0,-0.09792594,0.84825534,808.68134,592.71063,798.20514,843.3333,752.27106,0.0,0.0,0.15679931640625,0.117919921875,0.99627685546875,0.73272705078125,-18.31817626953125,-0.64300537109375,14178315.018315015,100750329.67032968,37474945.05494505,70.09482,1.0,1.0,4.0,1.0,1.0,40.0,/muse/elements/jaw_clench,0 days 00:00:00
2023-11-16 11:40:53.360,0.52334934,0.0,1.1557771,0.77919364,0.6748557,0.0,0.51050144,0.75401217,0.62674916,0.0,0.19973473,1.0180469,0.8832697,0.0,0.10914398,1.083353,0.79818213,0.0,-0.09792594,0.84825534,810.696,309.45056,794.57874,759.92676,784.90845,0.0,0.0,0.15679931640625,0.117919921875,0.99627685546875,0.73272705078125,-18.31817626953125,-0.64300537109375,14178315.018315015,100750329.67032968,37474945.05494505,70.09482,1.0,1.0,4.0,1.0,1.0,40.0,/muse/elements/jaw_clench,0 days 00:00:00.001000
2023-11-16 11:40:53.360,0.52334934,0.0,1.1557771,0.77919364,0.6748557,0.0,0.51050144,0.75401217,0.62674916,0.0,0.19973473,1.0180469,0.8832697,0.0,0.10914398,1.083353,0.79818213,0.0,-0.09792594,0.84825534,795.38464,534.68866,789.34064,699.0842,766.3736,0.0,0.0,0.15679931640625,0.117919921875,0.99627685546875,0.73272705078125,-18.31817626953125,-0.64300537109375,14178315.018315015,100750329.67032968,37474945.05494505,70.09482,1.0,1.0,4.0,1.0,1.0,40.0,/muse/elements/jaw_clench,0 days 00:00:00
2023-11-16 11:40:53.361,0.52334934,0.0,1.1557771,0.77919364,0.6748557,0.0,0.51050144,0.75401217,0.62674916,0.0,0.19973473,1.0180469,0.8832697,0.0,0.10914398,1.083353,0.79818213,0.0,-0.09792594,0.84825534,778.0586,551.6117,798.20514,806.6667,730.5128,0.0,0.0,0.15679931640625,0.117919921875,0.99627685546875,0.73272705078125,-18.31817626953125,-0.64300537109375,14178315.018315015,100750329.67032968,37474945.05494505,70.09482,1.0,1.0,4.0,1.0,1.0,40.0,/muse/elements/jaw_clench,0 days 00:00:00.001000
2023-11-16 11:40:53.361,0.52334934,0.0,1.1557771,0.77919364,0.6748557,0.0,0.51050144,0.75401217,0.62674916,0.0,0.19973473,1.0180469,0.8832697,0.0,0.10914398,1.083353,0.79818213,0.0,-0.09792594,0.84825534,792.5641,225.2381,806.26373,844.5421,894.5055,0.0,0.0,0.15679931640625,0.117919921875,0.99627685546875,0.73272705078125,-18.31817626953125,-0.64300537109375,14178315.018315015,100750329.67032968,37474945.05494505,70.09482,1.0,1.0,4.0,1.0,1.0,40.0,/muse/elements/jaw_clench,0 days 00:00:00
2023-11-16 11:40:53.362,0.52334934,0.0,1.1557771,0.77919364,0.6748557,0.0,0.51050144,0.75401217,0.62674916,0.0,0.19973473,1.0180469,0.8832697,0.0,0.10914398,1.083353,0.79818213,0.0,-0.09792594,0.84825534,808.2784,0.0,807.8755,845.34796,1106.044,0.0,0.0,0.15679931640625,0.117919921875,0.99627685546875,0.73272705078125,-18.31817626953125,-0.64300537109375,14178315.018315015,100750329.67032968,37474945.05494505,70.09482,1.0,1.0,4.0,1.0,1.0,40.0,/muse/elements/jaw_clench,0 days 00:00:00.001000
2023-11-16 11:40:53.362,0.52334934,0.0,1.1557771,0.77919364,0.6748557,0.0,0.51050144,0.75401217,0.62674916,0.0,0.19973473,1.0180469,0.8832697,0.0,0.10914398,1.083353,0.79818213,0.0,-0.09792594,0.84825534,800.2198,427.50916,792.1612,776.04395,855.82416,0.0,0.0,0.15679931640625,0.117919921875,0.99627685546875,0.73272705078125,-18.31817626953125,-0.64300537109375,14178315.018315015,100750329.67032968,37474945.05494505,70.09482,1.0,1.0,4.0,1.0,1.0,40.0,/muse/elements/jaw_clench,0 days 00:00:00
2023-11-16 11:40:53.363,0.52334934,0.0,1.1557771,0.77919364,0.6748557,0.0,0.51050144,0.75401217,0.62674916,0.0,0.19973473,1.0180469,0.8832697,0.0,0.10914398,1.083353,0.79818213,0.0,-0.09792594,0.84825534,795.38464,629.3773,788.5348,742.6007,638.6447,0.0,0.0,0.15679931640625,0.117919921875,0.99627685546875,0.73272705078125,-18.31817626953125,-0.64300537109375,14178315.018315015,100750329.67032968,37474945.05494505,70.09482,1.0,1.0,4.0,1.0,1.0,40.0,/muse/elements/jaw_clench,0 days 00:00:00.001000
2023-11-16 11:40:53.363,0.52334934,0.0,1.1557771,0.77919364,0.6748557,0.0,0.51050144,0.75401217,0.62674916,0.0,0.19973473,1.0180469,0.8832697,0.0,0.10914398,1.083353,0.79818213,0.0,-0.09792594,0.84825534,794.9817,193.4066,795.78754,847.3626,851.39197,0.0,0.0,0.15679931640625,0.117919921875,0.99627685546875,0.73272705078125,-18.31817626953125,-0.64300537109375,14178315.018315015,100750329.67032968,37474945.05494505,70.09482,1.0,1.0,4.0,1.0,1.0,40.0,/muse/elements/jaw_clench,0 days 00:00:00
2023-11-16 11:40:53.364,0.52334934,0.0,1.1557771,0.77919364,0.6748557,0.0,0.51050144,0.75401217,0.62674916,0.0,0.19973473,1.0180469,0.8832697,0.0,0.10914398,1.083353,0.79818213,0.0,-0.09792594,0.84825534,791.3553,318.71796,794.17584,838.49817,870.32965,0.0,0.0,0.15679931640625,0.117919921875,0.99627685546875,0.73272705078125,-18.31817626953125,-0.64300537109375,14178315.018315015,100750329.67032968,37474945.05494505,70.09482,1.0,1.0,4.0,1.0,1.0,40.0,/muse/elements/jaw_clench,0 days 00:00:00.001000
2023-11-16 11:40:53.389,0.52334934,0.0,1.1557771,0.77919364,0.6748557,0.0,0.51050144,0.75401217,0.62674916,0.0,0.19973473,1.0180469,0.8832697,0.0,0.10914398,1.083353,0.79818213,0.0,-0.09792594,0.84825534,791.3553,826.4103,793.7729,792.5641,722.8571,0.0,0.0,0.19378662109375,0.1298828125,0.99810791015625,0.605621337890625,-17.996673583984375,1.024322509765625,14178315.018315015,100750329.67032968,37474945.05494505,70.09482,1.0,1.0,4.0,1.0,1.0,40.0,/muse/elements/jaw_clench,0 days 00:00:00.025000
2023-11-16 11:40:53.390,0.52334934,0.0,1.1557771,0.77919364,0.6748557,0.0,0.51050144,0.75401217,0.62674916,0.0,0.19973473,1.0180469,0.8832697,0.0,0.10914398,1.083353,0.79818213,0.0,-0.09792594,0.84825534,792.5641,761.9414,801.8315,767.5824,688.60803,0.0,0.0,0.19378662109375,0.1298828125,0.99810791015625,0.605621337890625,-17.996673583984375,1.024322509765625,14178315.018315015,100750329.67032968,37474945.05494505,70.09482,1.0,1.0,4.0,1.0,1.0,40.0,/muse/elements/jaw_clench,0 days 00:00:00.001000
2023-11-16 11:40:53.390,0.52334934,0.0,1.1557771,0.77919364,0.6748557,0.0,0.51050144,0.75401217,0.62674916,0.0,0.19973473,1.0180469,0.8832697,0.0,0.10914398,1.083353,0.79818213,0.0,-0.09792594,0.84825534,799.011,597.1429,800.2198,725.6777,711.978,0.0,0.0,0.19378662109375,0.1298828125,0.99810791015625,0.605621337890625,-17.996673583984375,1.024322509765625,14178315.018315015,100750329.67032968,37474945.05494505,70.09482,1.0,1.0,4.0,1.0,1.0,40.0,/muse/elements/jaw_clench,0 days 00:00:00
2023-11-16 11:40:53.391,0.52334934,0.0,1.1557771,0.77919364,0.6748557,0.0,0.51050144,0.75401217,0.62674916,0.0,0.19973473,1.0180469,0.8832697,0.0,0.10914398,1.083353,0.79818213,0.0,-0.09792594,0.84825534,775.64105,717.619,798.60803,757.50916,727.6923,0.0,0.0,0.19378662109375,0.1298828125,0.99810791015625,0.605621337890625,-17.996673583984375,1.024322509765625,14178315.018315015,100750329.67032968,37474945.05494505,70.09482,1.0,1.0,4.0,1.0,1.0,40.0,/muse/elements/jaw_clench,0 days 00:00:00.001000
2023-11-16 11:40:53.391,0.52334934,0.0,1.1557771,0.77919364,0.6748557,0.0,0.51050144,0.75401217,0.62674916,0.0,0.19973473,1.0180469,0.8832697,0.0,0.10914398,1.083353,0.79818213,0.0,-0.09792594,0.84825534,771.6117,796.99634,797.3993,763.95605,644.2857,0.0,0.0,0.19378662109375,0.1298828125,0.99810791015625,0.605621337890625,-17.996673583984375,1.024322509765625,14178315.018315015,100750329.67032968,37474945.05494505,70.09482,1.0,1.0,4.0,1.0,1.0,40.0,/muse/elements/jaw_clench,0 days 00:00:00
2023-11-16 11:40:53.392,0.52334934,0.0,1.1557771,0.77919364,0.6748557,0.0,0.51050144,0.75401217,0.62674916,0.0,0.19973473,1.0180469,0.8832697,0.0,0.10914398,1.083353,0.79818213,0.0,-0.09792594,0.84825534,786.1172,510.1099,793.7729,697.8755,740.58606,0.0,0.0,0.19378662109375,0.1298828125,0.99810791015625,0.605621337890625,-17.996673583984375,1.024322509765625,14178315.018315015,100750329.67032968,37474945.05494505,70.09482,1.0,1.0,4.0,1.0,1.0,40.0,/muse/elements/jaw_clench,0 days 00:00:00.001000
2023-11-16 11:40:53.392,0.52334934,0.0,1.1557771,0.77919364,0.6748557,0.0,0.51050144,0.75401217,0.62674916,0.0,0.19973473,1.0180469,0.8832697,0.0,0.10914398,1.083353,0.79818213,0.0,-0.09792594,0.84825534,773.22345,213.55312,792.5641,755.09155,845.34796,0.0,0.0,0.19378662109375,0.1298828125,0.99810791015625,0.605621337890625,-17.996673583984375,1.024322509765625,14178315.018315015,100750329.67032968,37474945.05494505,70.09482,1.0,1.0,4.0,1.0,1.0,40.0,/muse/elements/jaw_clench,0 days 00:00:00
2023-11-16 11:40:53.393,0.52334934,0.0,1.1557771,0.77919364,0.6748557,0.0,0.51050144,0.75401217,0.62674916,0.0,0.19973473,1.0180469,0.8832697,0.0,0.10914398,1.083353,0.79818213,0.0,-0.09792594,0.84825534,792.96704,259.08426,792.1612,866.30035,797.8022,0.0,0.0,0.19378662109375,0.1298828125,0.99810791015625,0.605621337890625,-17.996673583984375,1.024322509765625,14178315.018315015,100750329.67032968,37474945.05494505,70.09482,1.0,1.0,4.0,1.0,1.0,40.0,/muse/elements/jaw_clench,0 days 00:00:00.001000
2023-11-16 11:40:53.393,0.52334934,0.0,1.1557771,0.77919364,0.6748557,0.0,0.51050144,0.75401217,0.62674916,0.0,0.19973473,1.0180469,0.8832697,0.0,0.10914398,1.083353,0.79818213,0.0,-0.09792594,0.84825534,781.685,605.2015,788.1319,830.4396,747.4359,0.0,0.0,0.19378662109375,0.1298828125,0.99810791015625,0.605621337890625,-17.996673583984375,1.024322509765625,14178315.018315015,100750329.67032968,37474945.05494505,70.09482,1.0,1.0,4.0,1.0,1.0,40.0,/muse/elements/jaw_clench,0 days 00:00:00
2023-11-16 11:40:53.394,0.52334934,0.0,1.1557771,0.77919364,0.6748557,0.0,0.51050144,0.75401217,0.62674916,0.0,0.19973473,1.0180469,0.8832697,0.0,0.10914398,1.083353,0.79818213,0.0,-0.09792594,0.84825534,759.5238,689.81683,789.7436,781.685,705.9341,0.0,0.0,0.19378662109375,0.1298828125,0.99810791015625,0.605621337890625,-17.996673583984375,1.024322509765625,14178315.018315015,100750329.67032968,37474945.05494505,70.09482,1.0,1.0,4.0,1.0,1.0,40.0,/muse/elements/jaw_clench,0 days 00:00:00.001000
2023-11-16 11:40:53.394,0.52334934,0.0,1.1557771,0.77919364,0.6748557,0.0,0.51050144,0.75401217,0.62674916,0.0,0.19973473,1.0180469,0.8832697,0.0,0.10914398,1.083353,0.79818213,0.0,-0.09792594,0.84825534,804.2491,110.40293,801.4286,698.68134,870.32965,0.0,0.0,0.19378662109375,0.1298828125,0.99810791015625,0.605621337890625,-17.996673583984375,1.024322509765625,14178315.018315015,100750329.67032968,37474945.05494505,70.09482,1.0,1.0,4.0,1.0,1.0,40.0,/muse/elements/jaw_clench,0 days 00:00:00
2023-11-16 11:40:53.394,0.52334934,0.0,1.1557771,0.77919364,0.6748557,0.0,0.51050144,0.75401217,0.62674916,0.0,0.19973473,1.0180469,0.8832697,0.0,0.10914398,1.083353,0.79818213,0.0,-0.09792594,0.84825534,783.69965,203.47986,794.57874,733.73627,820.7692,0.0,0.0,0.19378662109375,0.1298828125,0.99810791015625,0.605621337890625,-17.996673583984375,1.024322509765625,14178315.018315015,100750329.67032968,37474945.05494505,70.09482,1.0,1.0,4.0,1.0,1.0,40.0,/muse/elements/jaw_clench,0 days 00:00:00
2023-11-16 11:40:53.422,0.52334934,0.0,1.1557771,0.77919364,0.6748557,0.0,0.51050144,0.75401217,0.62674916,0.0,0.19973473,1.0180469,0.8832697,0.0,0.10914398,1.083353,0.79818213,0.0,-0.09792594,0.84825534,769.59705,757.9121,786.52014,773.22345,595.9341,0.0,0.0,0.18597412109375,0.10931396484375,0.98895263671875,-3.30474853515625,-13.959197998046877,1.2261962890625,14558681.318681318,100759194.13919412,37507179.48717949,70.09482,1.0,1.0,4.0,1.0,1.0,40.0,/muse/elements/jaw_clench,0 days 00:00:00.028000
2023-11-16 11:40:53.422,0.52334934,0.0,1.1704888,0.77919364,0.6748557,0.0,0.5287161,0.75401217,0.62674916,0.0,0.29147908,1.0180469,0.8832697,0.0,0.13631028,1.083353,0.79818213,0.0,-0.11497261,0.84825534,775.2381,525.42126,791.3553,789.7436,621.31866,0.0,0.0,0.18597412109375,0.10931396484375,0.98895263671875,-3.30474853515625,-13.959197998046877,1.2261962890625,14558681.318681318,100759194.13919412,37507179.48717949,70.09482,1.0,1.0,4.0,1.0,1.0,40.0,/muse/elements/jaw_clench,0 days 00:00:00
2023-11-16 11:40:53.424,0.52334934,0.0,1.1704888,0.77919364,0.6748557,0.0,0.5287161,0.75401217,0.62674916,0.0,0.29147908,1.0180469,0.8832697,0.0,0.13631028,1.083353,0.79818213,0.0,-0.11497261,0.84825534,787.326,404.1392,793.7729,839.707,656.77655,0.0,0.0,0.18597412109375,0.10931396484375,0.98895263671875,-3.30474853515625,-13.959197998046877,1.2261962890625,14558681.318681318,100759194.13919412,37507179.48717949,70.09482,1.0,1.0,4.0,1.0,1.0,40.0,/muse/elements/jaw_clench,0 days 00:00:00.002000
2023-11-16 11:40:53.424,0.52334934,0.0,1.1704888,0.77919364,0.6748557,0.0,0.5287161,0.75401217,0.62674916,0.0,0.29147908,1.0180469,0.8832697,0.0,0.13631028,1.083353,0.79818213,0.0,-0.11497261,0.84825534,771.2088,666.4469,794.57874,802.6374,663.6264,0.0,0.0,0.18597412109375,0.10931396484375,0.98895263671875,-3.30474853515625,-13.959197998046877,1.2261962890625,14558681.318681318,100759194.13919412,37507179.48717949,70.09482,1.0,1.0,4.0,1.0,1.0,40.0,/muse/elements/jaw_clench,0 days 00:00:00
2023-11-16 11:40:53.425,0.52334934,0.0,1.1704888,0.77919364,0.6748557,0.0,0.5287161,0.75401217,0.62674916,0.0,0.29147908,1.0180469,0.8832697,0.0,0.13631028,1.083353,0.79818213,0.0,-0.11497261,0.84825534,748.6447,689.81683,798.60803,753.0769,649.5238,0.0,0.0,0.18597412109375,0.10931396484375,0.98895263671875,-3.30474853515625,-13.959197998046877,1.2261962890625,14558681.318681318,100759194.13919412,37507179.48717949,70.09482,1.0,1.0,4.0,1.0,1.0,40.0,/muse/elements/jaw_clench,0 days 00:00:00.001000
2023-11-16 11:40:53.425,0.52334934,0.0,1.1704888,0.77919364,0.6748557,0.0,0.5287161,0.75401217,0.62674916,0.0,0.29147908,1.0180469,0.8832697,0.0,0.13631028,1.083353,0.79818213,0.0,-0.11497261,0.84825534,792.96704,330.0,807.8755,747.4359,799.81683,0.0,0.0,0.18597412109375,0.10931396484375,0.98895263671875,-3.30474853515625,-13.959197998046877,1.2261962890625,14558681.318681318,100759194.13919412,37507179.48717949,70.09482,1.0,1.0,4.0,1.0,1.0,40.0,/muse/elements/jaw_clench,0 days 00:00:00
2023-11-16 11:40:53.425,0.52334934,0.0,1.1704888,0.77919364,0.6748557,0.0,0.5287161,0.75401217,0.62674916,0.0,0.29147908,1.0180469,0.8832697,0.0,0.13631028,1.083353,0.79818213,0.0,-0.11497261,0.84825534,785.31134,149.48718,807.8755,809.0842,952.52747,0.0,0.0,0.18597412109375,0.10931396484375,0.98895263671875,-3.30474853515625,-13.959197998046877,1.2261962890625,14558681.318681318,100759194.13919412,37507179.48717949,70.09482,1.0,1.0,4.0,1.0,1.0,40.0,/muse/elements/jaw_clench,0 days 00:00:00
2023-11-16 11:40:53.426,0.52334934,0.0,1.1704888,0.77919364,0.6748557,0.0,0.5287161,0.75401217,0.62674916,0.0,0.29147908,1.0180469,0.8832697,0.0,0.13631028,1.083353,0.79818213,0.0,-0.11497261,0.84825534,807.47253,618.49817,799.81683,790.54944,845.7509,0.0,0.0,0.18597412109375,0.10931396484375,0.98895263671875,-3.30474853515625,-13.959197998046877,1.2261962890625,14558681.318681318,100759194.13919412,37507179.48717949,70.09482,1.0,1.0,4.0,1.0,1.0,40.0,/muse/elements/jaw_clench,0 days 00:00:00.001000
2023-11-16 11:40:53.426,0.52334934,0.0,1.1704888,0.77919364,0.6748557,0.0,0.5287161,0.75401217,0.62674916,0.0,0.29147908,1.0180469,0.8832697,0.0,0.13631028,1.083353,0.79818213,0.0,-0.11497261,0.84825534,812.71063,776.04395,800.6227,781.28204,697.8755,0.0,0.0,0.18597412109375,0.10931396484375,0.98895263671875,-3.30474853515625,-13.959197998046877,1.2261962890625,14558681.318681318,100759194.13919412,37507179.48717949,70.09482,1.0,1.0,4.0,1.0,1.0,40.0,/muse/elements/jaw_clench,0 days 00:00:00
2023-11-16 11:40:53.426,0.52334934,0.0,1.1704888,0.77919364,0.6748557,0.0,0.5287161,0.75401217,0.62674916,0.0,0.29147908,1.0180469,0.8832697,0.0,0.13631028,1.083353,0.79818213,0.0,-0.11497261,0.84825534,770.40295,342.49084,816.337,810.293,811.9048,0.0,0.0,0.18597412109375,0.10931396484375,0.98895263671875,-3.30474853515625,-13.959197998046877,1.2261962890625,14558681.318681318,100759194.13919412,37507179.48717949,70.09482,1.0,1.0,4.0,1.0,1.0,40.0,/muse/elements/jaw_clench,0 days 00:00:00
2023-11-16 11:40:53.426,0.52334934,0.0,1.1704888,0.77919364,0.6748557,0.0,0.5287161,0.75401217,0.62674916,0.0,0.29147908,1.0180469,0.8832697,0.0,0.13631028,1.083353,0.79818213,0.0,-0.11497261,0.84825534,791.3553,0.0,829.6337,830.84247,1153.9927,0.0,0.0,0.18597412109375,0.10931396484375,0.98895263671875,-3.30474853515625,-13.959197998046877,1.2261962890625,14558681.318681318,100759194.13919412,37507179.48717949,70.09482,1.0,1.0,4.0,1.0,1.0,40.0,/muse/elements/jaw_clench,0 days 00:00:00
2023-11-16 11:40:53.427,0.52334934,0.0,1.1704888,0.77919364,0.6748557,0.0,0.5287161,0.75401217,0.62674916,0.0,0.29147908,1.0180469,0.8832697,0.0,0.13631028,1.083353,0.79818213,0.0,-0.11497261,0.84825534,784.10254,273.1868,807.0696,762.3443,1016.99634,0.0,0.0,0.18597412109375,0.10931396484375,0.98895263671875,-3.30474853515625,-13.959197998046877,1.2261962890625,14558681.318681318,100759194.13919412,37507179.48717949,70.09482,1.0,1.0,4.0,1.0,1.0,40.0,/muse/elements/jaw_clench,0 days 00:00:00.001000
2023-11-16 11:40:53.489,0.52334934,0.0,1.1704888,0.77919364,0.6748557,0.0,0.5287161,0.75401217,0.62674916,0.0,0.29147908,1.0180469,0.8832697,0.0,0.13631028,1.083353,0.79818213,0.0,-0.11497261,0.84825534,784.10254,755.89746,794.9817,720.0366,699.4872,0.0,0.0,0.24462890625,0.103515625,0.98089599609375,-1.039276123046875,-11.118011474609377,2.5421142578125,14558681.318681318,100759194.13919412,37507179.48717949,70.09482,1.0,1.0,4.0,1.0,1.0,40.0,/muse/elements/jaw_clench,0 days 00:00:00.062000
2023-11-16 11:40:53.489,0.52334934,0.0,1.1704888,0.77919364,0.6748557,0.0,0.5287161,0.75401217,0.62674916,0.0,0.29147908,1.0180469,0.8832697,0.0,0.13631028,1.083353,0.79818213,0.0,-0.11497261,0.84825534,783.69965,404.1392,811.50183,801.8315,773.22345,0.0,0.0,0.24462890625,0.103515625,0.98089599609375,-1.039276123046875,-11.118011474609377,2.5421142578125,14558681.318681318,100759194.13919412,37507179.48717949,70.09482,1.0,1.0,4.0,1.0,1.0,40.0,/muse/elements/jaw_clench,0 days 00:00:00
2023-11-16 11:40:53.490,0.52334934,0.0,1.1704888,0.77919364,0.6748557,0.0,0.5287161,0.75401217,0.62674916,0.0,0.29147908,1.0180469,0.8832697,0.0,0.13631028,1.083353,0.79818213,0.0,-0.11497261,0.84825534,788.5348,433.95605,811.50183,830.84247,813.5165,0.0,0.0,0.24462890625,0.103515625,0.98089599609375,-1.039276123046875,-11.118011474609377,2.5421142578125,14558681.318681318,100759194.13919412,37507179.48717949,70.09482,1.0,1.0,4.0,1.0,1.0,40.0,/muse/elements/jaw_clench,0 days 00:00:00.001000
2023-11-16 11:40:53.490,0.52334934,0.0,1.1704888,0.77919364,0.6748557,0.0,0.5287161,0.75401217,0.62674916,0.0,0.29147908,1.0180469,0.8832697,0.0,0.13631028,1.083353,0.79818213,0.0,-0.11497261,0.84825534,805.4579,865.09155,807.0696,814.3223,740.18317,0.0,0.0,0.24462890625,0.103515625,0.98089599609375,-1.039276123046875,-11.118011474609377,2.5421142578125,14558681.318681318,100759194.13919412,37507179.48717949,70.09482,1.0,1.0,4.0,1.0,1.0,40.0,/muse/elements/jaw_clench,0 days 00:00:00
2023-11-16 11:40:53.491,0.52334934,0.0,1.1704888,0.77919364,0.6748557,0.0,0.5287161,0.75401217,0.62674916,0.0,0.29147908,1.0180469,0.8832697,0.0,0.13631028,1.083353,0.79818213,0.0,-0.11497261,0.84825534,777.25275,741.79486,807.0696,796.99634,728.0952,0.0,0.0,0.24462890625,0.103515625,0.98089599609375,-1.039276123046875,-11.118011474609377,2.5421142578125,14558681.318681318,100759194.13919412,37507179.48717949,70.09482,1.0,1.0,4.0,1.0,1.0,40.0,/muse/elements/jaw_clench,0 days 00:00:00.001000
2023-11-16 11:40:53.491,0.52334934,0.0,1.1704888,0.77919364,0.6748557,0.0,0.5287161,0.75401217,0.62674916,0.0,0.29147908,1.0180469,0.8832697,0.0,0.13631028,1.083353,0.79818213,0.0,-0.11497261,0.84825534,759.12085,375.1282,811.0989,756.30035,791.75824,0.0,0.0,0.24462890625,0.103515625,0.98089599609375,-1.039276123046875,-11.118011474609377,2.5421142578125,14558681.318681318,100759194.13919412,37507179.48717949,70.09482,1.0,1.0,4.0,1.0,1.0,40.0,/muse/elements/jaw_clench,0 days 00:00:00
2023-11-16 11:40:53.492,0.52334934,0.0,1.1704888,0.77919364,0.6748557,0.0,0.5287161,0.75401217,0.62674916,0.0,0.29147908,1.0180469,0.8832697,0.0,0.13631028,1.083353,0.79818213,0.0,-0.11497261,0.84825534,776.8498,242.16118,803.44324,757.50916,778.46155,0.0,0.0,0.24462890625,0.103515625,0.98089599609375,-1.039276123046875,-11.118011474609377,2.5421142578125,14558681.318681318,100759194.13919412,37507179.48717949,70.09482,1.0,1.0,4.0,1.0,1.0,40.0,/muse/elements/jaw_clench,0 days 00:00:00.001000
2023-11-16 11:40:53.492,0.52334934,0.0,1.1704888,0.77919364,0.6748557,0.0,0.5287161,0.75401217,0.62674916,0.0,0.29147908,1.0180469,0.8832697,0.0,0.13631028,1.083353,0.79818213,0.0,-0.11497261,0.84825534,805.4579,475.05493,796.99634,803.0403,720.0366,0.0,0.0,0.24462890625,0.103515625,0.98089599609375,-1.039276123046875,-11.118011474609377,2.5421142578125,14558681.318681318,100759194.13919412,37507179.48717949,70.09482,1.0,1.0,4.0,1.0,1.0,40.0,/muse/elements/jaw_clench,0 days 00:00:00
2023-11-16 11:40:53.493,0.52334934,0.0,1.1704888,0.77919364,0.6748557,0.0,0.5287161,0.75401217,0.62674916,0.0,0.29147908,1.0180469,0.8832697,0.0,0.13631028,1.083353,0.79818213,0.0,-0.11497261,0.84825534,805.05493,634.61536,803.44324,780.4762,688.60803,0.0,0.0,0.24462890625,0.103515625,0.98089599609375,-1.039276123046875,-11.118011474609377,2.5421142578125,14558681.318681318,100759194.13919412,37507179.48717949,70.09482,1.0,1.0,4.0,1.0,1.0,40.0,/muse/elements/jaw_clench,0 days 00:00:00.001000
2023-11-16 11:40:53.493,0.52334934,0.0,1.1704888,0.77919364,0.6748557,0.0,0.5287161,0.75401217,0.62674916,0.0,0.29147908,1.0180469,0.8832697,0.0,0.13631028,1.083353,0.79818213,0.0,-0.11497261,0.84825534,803.8461,170.43956,813.91943,753.8828,838.49817,0.0,0.0,0.24462890625,0.103515625,0.98089599609375,-1.039276123046875,-11.118011474609377,2.5421142578125,14558681.318681318,100759194.13919412,37507179.48717949,70.09482,1.0,1.0,4.0,1.0,1.0,40.0,/muse/elements/jaw_clench,0 days 00:00:00
2023-11-16 11:40:53.493,0.52334934,0.0,1.1704888,0.77919364,0.6748557,0.0,0.5287161,0.75401217,0.62674916,0.0,0.29147908,1.0180469,0.8832697,0.0,0.13631028,1.083353,0.79818213,0.0,-0.11497261,0.84825534,798.20514,306.63004,809.0842,781.28204,818.3516,0.0,0.0,0.24462890625,0.103515625,0.98089599609375,-1.039276123046875,-11.118011474609377,2.5421142578125,14558681.318681318,100759194.13919412,37507179.48717949,70.09482,1.0,1.0,4.0,1.0,1.0,40.0,/muse/elements/jaw_clench,0 days 00:00:00
2023-11-16 11:40:53.494,0.52334934,0.0,1.1704888,0.77919364,0.6748557,0.0,0.5287161,0.75401217,0.62674916,0.0,0.29147908,1.0180469,0.8832697,0.0,0.13631028,1.083353,0.79818213,0.0,-0.11497261,0.84825534,802.6374,825.2015,805.8608,801.8315,635.42126,0.0,0.0,0.24462890625,0.103515625,0.98089599609375,-1.039276123046875,-11.118011474609377,2.5421142578125,14558681.318681318,100759194.13919412,37507179.48717949,70.09482,1.0,1.0,4.0,1.0,1.0,40.0,/muse/elements/jaw_clench,0 days 00:00:00.001000
2023-11-16 11:40:53.518,0.52334934,0.0,1.1704888,0.77919364,0.6748557,0.0,0.5287161,0.75401217,0.62674916,0.0,0.29147908,1.0180469,0.8832697,0.0,0.13631028,1.083353,0.79818213,0.0,-0.11497261,0.84825534,813.1135,511.3187,817.1429,785.31134,733.73627,0.0,0.0,0.2379150390625,0.0919189453125,0.96795654296875,0.650482177734375,-6.826324462890625,3.207550048828125,14412820.512820512,100789010.989011,37526520.146520145,70.09482,1.0,1.0,4.0,1.0,1.0,40.0,/muse/elements/jaw_clench,0 days 00:00:00.024000
2023-11-16 11:40:53.518,0.52334934,0.0,1.1704888,0.77919364,0.6748557,0.0,0.5287161,0.75401217,0.62674916,0.0,0.29147908,1.0180469,0.8832697,0.0,0.13631028,1.083353,0.79818213,0.0,-0.11497261,0.84825534,816.337,283.26007,816.337,779.67035,763.95605,0.0,0.0,0.2379150390625,0.0919189453125,0.96795654296875,0.650482177734375,-6.826324462890625,3.207550048828125,14412820.512820512,100789010.989011,37526520.146520145,70.09482,1.0,1.0,4.0,1.0,1.0,40.0,/muse/elements/jaw_clench,0 days 00:00:00
2023-11-16 11:40:53.519,0.52334934,0.0,1.1704888,0.77919364,0.6748557,0.0,0.5287161,0.75401217,0.62674916,0.0,0.29147908,1.0180469,0.8832697,0.0,0.13631028,1.083353,0.79818213,0.0,-0.11497261,0.84825534,797.8022,628.1685,805.05493,785.7143,666.4469,0.0,0.0,0.2379150390625,0.0919189453125,0.96795654296875,0.650482177734375,-6.826324462890625,3.207550048828125,14412820.512820512,100789010.989011,37526520.146520145,70.09482,1.0,1.0,4.0,1.0,1.0,40.0,/muse/elements/jaw_clench,0 days 00:00:00.001000
2023-11-16 11:40:53.519,0.52334934,0.0,1.165378,0.77919364,0.6748557,0.0,0.53876245,0.75401217,0.62674916,0.0,0.3888517,1.0180469,0.8832697,0.0,0.16299994,1.083353,0.79818213,0.0,-0.14564434,0.84825534,784.5055,797.8022,803.8461,786.9231,706.7399,0.0,0.0,0.2379150390625,0.0919189453125,0.96795654296875,0.650482177734375,-6.826324462890625,3.207550048828125,14412820.512820512,100789010.989011,37526520.146520145,70.09482,1.0,1.0,4.0,1.0,1.0,40.0,/muse/elements/jaw_clench,0 days 00:00:00
2023-11-16 11:40:53.521,0.52334934,0.0,1.165378,0.77919364,0.6748557,0.0,0.53876245,0.75401217,0.62674916,0.0,0.3888517,1.0180469,0.8832697,0.0,0.16299994,1.083353,0.79818213,0.0,-0.14564434,0.84825534,816.337,443.22345,815.5311,790.14655,776.4469,0.0,0.0,0.2379150390625,0.0919189453125,0.96795654296875,0.650482177734375,-6.826324462890625,3.207550048828125,14412820.512820512,100789010.989011,37526520.146520145,70.09482,1.0,1.0,4.0,1.0,1.0,40.0,/muse/elements/jaw_clench,0 days 00:00:00.002000
2023-11-16 11:40:53.521,0.52334934,0.0,1.165378,0.77919364,0.6748557,0.0,0.53876245,0.75401217,0.62674916,0.0,0.3888517,1.0180469,0.8832697,0.0,0.16299994,1.083353,0.79818213,0.0,-0.14564434,0.84825534,825.2015,61.245422,816.337,803.0403,744.21246,0.0,0.0,0.2379150390625,0.0919189453125,0.96795654296875,0.650482177734375,-6.826324462890625,3.207550048828125,14412820.512820512,100789010.989011,37526520.146520145,70.09482,1.0,1.0,4.0,1.0,1.0,40.0,/muse/elements/jaw_clench,0 days 00:00:00
2023-11-16 11:40:53.521,0.52334934,0.0,1.165378,0.77919364,0.6748557,0.0,0.53876245,0.75401217,0.62674916,0.0,0.3888517,1.0180469,0.8832697,0.0,0.16299994,1.083353,0.79818213,0.0,-0.14564434,0.84825534,799.41394,195.82417,807.0696,808.68134,744.21246,0.0,0.0,0.2379150390625,0.0919189453125,0.96795654296875,0.650482177734375,-6.826324462890625,3.207550048828125,14412820.512820512,100789010.989011,37526520.146520145,70.09482,1.0,1.0,4.0,1.0,1.0,40.0,/muse/elements/jaw_clench,0 days 00:00:00
2023-11-16 11:40:53.521,0.52334934,0.0,1.165378,0.77919364,0.6748557,0.0,0.53876245,0.75401217,0.62674916,0.0,0.3888517,1.0180469,0.8832697,0.0,0.16299994,1.083353,0.79818213,0.0,-0.14564434,0.84825534,801.02563,431.53845,807.47253,823.5897,701.9048,0.0,0.0,0.2379150390625,0.0919189453125,0.96795654296875,0.650482177734375,-6.826324462890625,3.207550048828125,14412820.512820512,100789010.989011,37526520.146520145,70.09482,1.0,1.0,4.0,1.0,1.0,40.0,/muse/elements/jaw_clench,0 days 00:00:00
2023-11-16 11:40:53.522,0.52334934,0.0,1.165378,0.77919364,0.6748557,0.0,0.53876245,0.75401217,0.62674916,0.0,0.3888517,1.0180469,0.8832697,0.0,0.16299994,1.083353,0.79818213,0.0,-0.14564434,0.84825534,817.5458,305.8242,815.5311,815.5311,773.6264,0.0,0.0,0.2379150390625,0.0919189453125,0.96795654296875,0.650482177734375,-6.826324462890625,3.207550048828125,14412820.512820512,100789010.989011,37526520.146520145,70.09482,1.0,1.0,4.0,1.0,1.0,40.0,/muse/elements/jaw_clench,0 days 00:00:00.001000
2023-11-16 11:40:53.522,0.52334934,0.0,1.165378,0.77919364,0.6748557,0.0,0.53876245,0.75401217,0.62674916,0.0,0.3888517,1.0180469,0.8832697,0.0,0.16299994,1.083353,0.79818213,0.0,-0.14564434,0.84825534,829.6337,0.0,818.7546,822.381,959.7802,0.0,0.0,0.2379150390625,0.0919189453125,0.96795654296875,0.650482177734375,-6.826324462890625,3.207550048828125,14412820.512820512,100789010.989011,37526520.146520145,70.09482,1.0,1.0,4.0,1.0,1.0,40.0,/muse/elements/jaw_clench,0 days 00:00:00
2023-11-16 11:40:53.522,0.52334934,0.0,1.165378,0.77919364,0.6748557,0.0,0.53876245,0.75401217,0.62674916,0.0,0.3888517,1.0180469,0.8832697,0.0,0.16299994,1.083353,0.79818213,0.0,-0.14564434,0.84825534,822.7839,236.11722,806.6667,821.1722,773.6264,0.0,0.0,0.2379150390625,0.0919189453125,0.96795654296875,0.650482177734375,-6.826324462890625,3.207550048828125,14412820.512820512,100789010.989011,37526520.146520145,70.09482,1.0,1.0,4.0,1.0,1.0,40.0,/muse/elements/jaw_clench,0 days 00:00:00
2023-11-16 11:40:53.523,0.52334934,0.0,1.165378,0.77919364,0.6748557,0.0,0.53876245,0.75401217,0.62674916,0.0,0.3888517,1.0180469,0.8832697,0.0,0.16299994,1.083353,0.79818213,0.0,-0.14564434,0.84825534,777.25275,614.0659,803.8461,790.14655,631.39197,0.0,0.0,0.2379150390625,0.0919189453125,0.96795654296875,0.650482177734375,-6.826324462890625,3.207550048828125,14412820.512820512,100789010.989011,37526520.146520145,70.09482,1.0,1.0,4.0,1.0,1.0,40.0,/muse/elements/jaw_clench,0 days 00:00:00.001000
2023-11-16 11:40:53.581,0.52334934,0.0,1.165378,0.77919364,0.6748557,0.0,0.53876245,0.75401217,0.62674916,0.0,0.3888517,1.0180469,0.8832697,0.0,0.16299994,1.083353,0.79818213,0.0,-0.14564434,0.84825534,783.2967,339.2674,809.4872,796.1905,737.76556,0.0,0.0,0.2379150390625,0.0919189453125,0.96795654296875,0.650482177734375,-6.826324462890625,3.207550048828125,14412820.512820512,100789010.989011,37526520.146520145,70.09482,1.0,1.0,4.0,1.0,1.0,40.0,/muse/elements/jaw_clench,0 days 00:00:00.058000
2023-11-16 11:40:53.582,0.52334934,0.0,1.165378,0.77919364,0.6748557,0.0,0.53876245,0.75401217,0.62674916,0.0,0.3888517,1.0180469,0.8832697,0.0,0.16299994,1.083353,0.79818213,0.0,-0.14564434,0.84825534,807.47253,390.8425,803.8461,787.72894,762.74725,0.0,0.0,0.2379150390625,0.0919189453125,0.96795654296875,0.650482177734375,-6.826324462890625,3.207550048828125,14412820.512820512,100789010.989011,37526520.146520145,70.09482,1.0,1.0,4.0,1.0,1.0,40.0,/muse/elements/jaw_clench,0 days 00:00:00.001000
2023-11-16 11:40:53.582,0.52334934,0.0,1.165378,0.77919364,0.6748557,0.0,0.53876245,0.75401217,0.62674916,0.0,0.3888517,1.0180469,0.8832697,0.0,0.16299994,1.083353,0.79818213,0.0,-0.14564434,0.84825534,797.8022,709.9634,802.6374,793.7729,668.86444,0.0,0.0,0.2379150390625,0.0919189453125,0.96795654296875,0.650482177734375,-6.826324462890625,3.207550048828125,14412820.512820512,100789010.989011,37526520.146520145,70.09482,1.0,1.0,4.0,1.0,1.0,40.0,/muse/elements/jaw_clench,0 days 00:00:00
2023-11-16 11:40:53.583,0.52334934,0.0,1.165378,0.77919364,0.6748557,0.0,0.53876245,0.75401217,0.62674916,0.0,0.3888517,1.0180469,0.8832697,0.0,0.16299994,1.083353,0.79818213,0.0,-0.14564434,0.84825534,794.9817,529.45056,809.0842,806.6667,688.60803,0.0,0.0,0.2379150390625,0.0919189453125,0.96795654296875,0.650482177734375,-6.826324462890625,3.207550048828125,14412820.512820512,100789010.989011,37526520.146520145,70.09482,1.0,1.0,4.0,1.0,1.0,40.0,/muse/elements/jaw_clench,0 days 00:00:00.001000
2023-11-16 11:40:53.583,0.52334934,0.0,1.165378,0.77919364,0.6748557,0.0,0.53876245,0.75401217,0.62674916,0.0,0.3888517,1.0180469,0.8832697,0.0,0.16299994,1.083353,0.79818213,0.0,-0.14564434,0.84825534,803.0403,193.4066,812.3077,803.0403,796.5934,0.0,0.0,0.2379150390625,0.0919189453125,0.96795654296875,0.650482177734375,-6.826324462890625,3.207550048828125,14412820.512820512,100789010.989011,37526520.146520145,70.09482,1.0,1.0,4.0,1.0,1.0,40.0,/muse/elements/jaw_clench,0 days 00:00:00
2023-11-16 11:40:53.584,0.52334934,0.0,1.165378,0.77919364,0.6748557,0.0,0.53876245,0.75401217,0.62674916,0.0,0.3888517,1.0180469,0.8832697,0.0,0.16299994,1.083353,0.79818213,0.0,-0.14564434,0.84825534,808.2784,128.13187,809.0842,808.68134,776.8498,0.0,0.0,0.2379150390625,0.0919189453125,0.96795654296875,0.650482177734375,-6.826324462890625,3.207550048828125,14412820.512820512,100789010.989011,37526520.146520145,70.09482,1.0,1.0,4.0,1.0,1.0,40.0,/muse/elements/jaw_clench,0 days 00:00:00.001000
2023-11-16 11:40:53.585,0.52334934,0.0,1.165378,0.77919364,0.6748557,0.0,0.53876245,0.75401217,0.62674916,0.0,0.3888517,1.0180469,0.8832697,0.0,0.16299994,1.083353,0.79818213,0.0,-0.14564434,0.84825534,809.4872,257.0696,809.0842,831.6484,740.58606,0.0,0.0,0.2379150390625,0.0919189453125,0.96795654296875,0.650482177734375,-6.826324462890625,3.207550048828125,14412820.512820512,100789010.989011,37526520.146520145,70.09482,1.0,1.0,4.0,1.0,1.0,40.0,/muse/elements/jaw_clench,0 days 00:00:00.001000
2023-11-16 11:40:53.585,0.52334934,0.0,1.165378,0.77919364,0.6748557,0.0,0.53876245,0.75401217,0.62674916,0.0,0.3888517,1.0180469,0.8832697,0.0,0.16299994,1.083353,0.79818213,0.0,-0.14564434,0.84825534,788.5348,356.1905,813.91943,807.0696,779.67035,0.0,0.0,0.2379150390625,0.0919189453125,0.96795654296875,0.650482177734375,-6.826324462890625,3.207550048828125,14412820.512820512,100789010.989011,37526520.146520145,70.09482,1.0,1.0,4.0,1.0,1.0,40.0,/muse/elements/jaw_clench,0 days 00:00:00
2023-11-16 11:40:53.585,0.52334934,0.0,1.165378,0.77919364,0.6748557,0.0,0.53876245,0.75401217,0.62674916,0.0,0.3888517,1.0180469,0.8832697,0.0,0.16299994,1.083353,0.79818213,0.0,-0.14564434,0.84825534,798.60803,111.611725,817.5458,792.5641,909.81683,0.0,0.0,0.2379150390625,0.0919189453125,0.96795654296875,0.650482177734375,-6.826324462890625,3.207550048828125,14412820.512820512,100789010.989011,37526520.146520145,70.09482,1.0,1.0,4.0,1.0,1.0,40.0,/muse/elements/jaw_clench,0 days 00:00:00
2023-11-16 11:40:53.586,0.52334934,0.0,1.165378,0.77919364,0.6748557,0.0,0.53876245,0.75401217,0.62674916,0.0,0.3888517,1.0180469,0.8832697,0.0,0.16299994,1.083353,0.79818213,0.0,-0.14564434,0.84825534,793.36993,289.70697,810.293,808.2784,877.98535,0.0,0.0,0.2379150390625,0.0919189453125,0.96795654296875,0.650482177734375,-6.826324462890625,3.207550048828125,14412820.512820512,100789010.989011,37526520.146520145,70.09482,1.0,1.0,4.0,1.0,1.0,40.0,/muse/elements/jaw_clench,0 days 00:00:00.001000
2023-11-16 11:40:53.587,0.52334934,0.0,1.165378,0.77919364,0.6748557,0.0,0.53876245,0.75401217,0.62674916,0.0,0.3888517,1.0180469,0.8832697,0.0,0.16299994,1.083353,0.79818213,0.0,-0.14564434,0.84825534,786.52014,813.5165,801.8315,789.7436,684.57874,0.0,0.0,0.2379150390625,0.0919189453125,0.96795654296875,0.650482177734375,-6.826324462890625,3.207550048828125,14412820.512820512,100789010.989011,37526520.146520145,70.09482,1.0,1.0,4.0,1.0,1.0,40.0,/muse/elements/jaw_clench,0 days 00:00:00.001000
2023-11-16 11:40:53.587,0.52334934,0.0,1.165378,0.77919364,0.6748557,0.0,0.53876245,0.75401217,0.62674916,0.0,0.3888517,1.0180469,0.8832697,0.0,0.16299994,1.083353,0.79818213,0.0,-0.14564434,0.84825534,792.96704,614.0659,807.0696,808.2784,686.99634,0.0,0.0,0.2379150390625,0.0919189453125,0.96795654296875,0.650482177734375,-6.826324462890625,3.207550048828125,14412820.512820512,100789010.989011,37526520.146520145,70.09482,1.0,1.0,4.0,1.0,1.0,40.0,/muse/elements/jaw_clench,0 days 00:00:00
2023-11-16 11:40:53.619,0.52334934,0.0,1.165378,0.77919364,0.6748557,0.0,0.53876245,0.75401217,0.62674916,0.0,0.3888517,1.0180469,0.8832697,0.0,0.16299994,1.083353,0.79818213,0.0,-0.14564434,0.84825534,792.1612,487.14285,809.0842,795.78754,744.61536,0.0,0.0,0.18621826171875,0.07537841796875,0.9508056640625,2.848663330078125,-0.934600830078125,-2.026214599609375,14485347.985347984,100855091.57509156,37513626.37362637,70.09482,1.0,1.0,4.0,1.0,1.0,40.0,/muse/elements/jaw_clench,0 days 00:00:00.032000
2023-11-16 11:40:53.620,0.52334934,0.0,1.165378,0.77919364,0.6748557,0.0,0.53876245,0.75401217,0.62674916,0.0,0.3888517,1.0180469,0.8832697,0.0,0.16299994,1.083353,0.79818213,0.0,-0.14564434,0.84825534,801.4286,715.6044,806.6667,780.07324,707.9487,0.0,0.0,0.18621826171875,0.07537841796875,0.9508056640625,2.848663330078125,-0.934600830078125,-2.026214599609375,14485347.985347984,100855091.57509156,37513626.37362637,70.09482,1.0,1.0,4.0,1.0,1.0,40.0,/muse/elements/jaw_clench,0 days 00:00:00.001000
2023-11-16 11:40:53.620,0.52334934,0.0,1.165378,0.77919364,0.6748557,0.0,0.53876245,0.75401217,0.62674916,0.0,0.3888517,1.0180469,0.8832697,0.0,0.16299994,1.083353,0.79818213,0.0,-0.14564434,0.84825534,798.20514,786.9231,809.4872,794.17584,674.5055,0.0,0.0,0.18621826171875,0.07537841796875,0.9508056640625,2.848663330078125,-0.934600830078125,-2.026214599609375,14485347.985347984,100855091.57509156,37513626.37362637,70.09482,1.0,1.0,4.0,1.0,1.0,40.0,/muse/elements/jaw_clench,0 days 00:00:00
2023-11-16 11:40:53.621,0.52334934,0.0,1.165378,0.77919364,0.6748557,0.0,0.53876245,0.75401217,0.62674916,0.0,0.3888517,1.0180469,0.8832697,0.0,0.16299994,1.083353,0.79818213,0.0,-0.14564434,0.84825534,800.6227,552.4176,815.5311,811.0989,744.21246,0.0,0.0,0.18621826171875,0.07537841796875,0.9508056640625,2.848663330078125,-0.934600830078125,-2.026214599609375,14485347.985347984,100855091.57509156,37513626.37362637,70.09482,1.0,1.0,4.0,1.0,1.0,40.0,/muse/elements/jaw_clench,0 days 00:00:00.001000
2023-11-16 11:40:53.621,0.52334934,0.0,1.165378,0.77919364,0.6748557,0.0,0.53876245,0.75401217,0.62674916,0.0,0.3888517,1.0180469,0.8832697,0.0,0.16299994,1.083353,0.79818213,0.0,-0.14564434,0.84825534,807.8755,423.07693,816.337,820.7692,724.0659,0.0,0.0,0.18621826171875,0.07537841796875,0.9508056640625,2.848663330078125,-0.934600830078125,-2.026214599609375,14485347.985347984,100855091.57509156,37513626.37362637,70.09482,1.0,1.0,4.0,1.0,1.0,40.0,/muse/elements/jaw_clench,0 days 00:00:00
2023-11-16 11:40:53.622,0.52334934,0.0,1.1500735,0.77919364,0.6748557,0.0,0.54313,0.75401217,0.62674916,0.0,0.4158967,1.0180469,0.8832697,0.0,0.18675366,1.083353,0.79818213,0.0,-0.18017896,0.84825534,797.8022,385.6044,814.3223,806.26373,705.5311,0.0,0.0,0.18621826171875,0.07537841796875,0.9508056640625,2.848663330078125,-0.934600830078125,-2.026214599609375,14485347.985347984,100855091.57509156,37513626.37362637,70.09482,1.0,1.0,4.0,1.0,1.0,40.0,/muse/elements/jaw_clench,0 days 00:00:00.001000
2023-11-16 11:40:53.624,0.52334934,0.0,1.1500735,0.77919364,0.6748557,0.0,0.54313,0.75401217,0.62674916,0.0,0.4158967,1.0180469,0.8832697,0.0,0.18675366,1.083353,0.79818213,0.0,-0.18017896,0.84825534,787.72894,207.10623,813.1135,816.337,745.42126,0.0,0.0,0.18621826171875,0.07537841796875,0.9508056640625,2.848663330078125,-0.934600830078125,-2.026214599609375,14485347.985347984,100855091.57509156,37513626.37362637,70.09482,1.0,1.0,4.0,1.0,1.0,40.0,/muse/elements/jaw_clench,0 days 00:00:00.002000
2023-11-16 11:40:53.625,0.52334934,0.0,1.1500735,0.77919364,0.6748557,0.0,0.54313,0.75401217,0.62674916,0.0,0.4158967,1.0180469,0.8832697,0.0,0.18675366,1.083353,0.79818213,0.0,-0.18017896,0.84825534,800.6227,104.35897,811.9048,818.7546,892.0879,0.0,0.0,0.18621826171875,0.07537841796875,0.9508056640625,2.848663330078125,-0.934600830078125,-2.026214599609375,14485347.985347984,100855091.57509156,37513626.37362637,70.09482,1.0,1.0,4.0,1.0,1.0,40.0,/muse/elements/jaw_clench,0 days 00:00:00.001000
2023-11-16 11:40:53.625,0.52334934,0.0,1.1500735,0.77919364,0.6748557,0.0,0.54313,0.75401217,0.62674916,0.0,0.4158967,1.0180469,0.8832697,0.0,0.18675366,1.083353,0.79818213,0.0,-0.18017896,0.84825534,802.23444,31.831501,809.0842,819.15753,1046.0073,0.0,0.0,0.18621826171875,0.07537841796875,0.9508056640625,2.848663330078125,-0.934600830078125,-2.026214599609375,14485347.985347984,100855091.57509156,37513626.37362637,70.09482,1.0,1.0,4.0,1.0,1.0,40.0,/muse/elements/jaw_clench,0 days 00:00:00
2023-11-16 11:40:53.626,0.52334934,0.0,1.1500735,0.77919364,0.6748557,0.0,0.54313,0.75401217,0.62674916,0.0,0.4158967,1.0180469,0.8832697,0.0,0.18675366,1.083353,0.79818213,0.0,-0.18017896,0.84825534,786.9231,189.78021,795.78754,804.2491,842.1245,0.0,0.0,0.18621826171875,0.07537841796875,0.9508056640625,2.848663330078125,-0.934600830078125,-2.026214599609375,14485347.985347984,100855091.57509156,37513626.37362637,70.09482,1.0,1.0,4.0,1.0,1.0,40.0,/muse/elements/jaw_clench,0 days 00:00:00.001000
2023-11-16 11:40:53.626,0.52334934,0.0,1.1500735,0.77919364,0.6748557,0.0,0.54313,0.75401217,0.62674916,0.0,0.4158967,1.0180469,0.8832697,0.0,0.18675366,1.083353,0.79818213,0.0,-0.18017896,0.84825534,779.2674,308.24176,792.96704,786.9231,732.1245,0.0,0.0,0.18621826171875,0.07537841796875,0.9508056640625,2.848663330078125,-0.934600830078125,-2.026214599609375,14485347.985347984,100855091.57509156,37513626.37362637,70.09482,1.0,1.0,4.0,1.0,1.0,40.0,/muse/elements/jaw_clench,0 days 00:00:00
2023-11-16 11:40:53.627,0.52334934,0.0,1.1500735,0.77919364,0.6748557,0.0,0.54313,0.75401217,0.62674916,0.0,0.4158967,1.0180469,0.8832697,0.0,0.18675366,1.083353,0.79818213,0.0,-0.18017896,0.84825534,803.44324,130.95238,808.2784,809.0842,844.5421,0.0,0.0,0.18621826171875,0.07537841796875,0.9508056640625,2.848663330078125,-0.934600830078125,-2.026214599609375,14485347.985347984,100855091.57509156,37513626.37362637,70.09482,1.0,1.0,4.0,1.0,1.0,40.0,/muse/elements/jaw_clench,0 days 00:00:00.001000
