TimeStamp,Delta_TP9,Delta_AF7,Delta_AF8,Delta_TP10,Theta_TP9,Theta_AF7,Theta_AF8,Theta_TP10,Alpha_TP9,Alpha_AF7,Alpha_AF8,Alpha_TP10,Beta_TP9,Beta_AF7,Beta_AF8,Beta_TP10,Gamma_TP9,Gamma_AF7,Gamma_AF8,Gamma_TP10,RAW_TP9,RAW_AF7,RAW_AF8,RAW_TP10,AUX_RIGHT,Mellow,Concentration,Accelerometer_X,Accelerometer_Y,Accelerometer_Z,Gyro_X,Gyro_Y,Gyro_Z,PPG_Ambient,PPG_IR,PPG_Red,Heart_Rate,HeadBandOn,HSI_TP9,HSI_AF7,HSI_AF8,HSI_TP10,Battery,Elements,TimeDifference
2023-11-16 11:24:43.134,0.0,0.005357788,0.49362656,0.0,0.0,0.10117492,0.0024415539,0.0,0.0,0.49280104,0.6102755,0.0,0.0,1.1325325,0.752509,0.0,0.0,0.77435464,0.55179363,0.0,838.9011,807.0696,776.4469,796.1905,631.39197,0.0,0.0,0.1209716796875,0.04620361328125,0.99835205078125,2.3626708984375,-8.007659912109375,-5.5328369140625,19036849.816849817,117953846.15384614,53217435.897435896,86.3924,1.0,2.0,1.0,1.0,2.0,50.0,,0 days 00:00:00.029000
2023-11-16 11:24:43.135,0.0,-0.020577436,0.49362656,0.0,0.0,0.06980872,0.0024415539,0.0,0.0,0.49280104,0.6102755,0.0,0.0,1.145928,0.752509,0.0,0.0,0.7741046,0.55179363,0.0,809.0842,796.1905,781.685,804.65204,614.4689,0.0,0.0,0.1209716796875,0.04620361328125,0.99835205078125,2.3626708984375,-8.007659912109375,-5.5328369140625,19036849.816849817,117953846.15384614,53217435.897435896,86.3924,1.0,2.0,1.0,1.0,2.0,50.0,,0 days 00:00:00.001000
2023-11-16 11:24:43.136,0.0,-0.020577436,0.49362656,0.0,0.0,0.06980872,0.0024415539,0.0,0.0,0.49280104,0.6102755,0.0,0.0,1.145928,0.752509,0.0,0.0,0.7741046,0.55179363,0.0,782.0879,804.65204,787.72894,814.7253,632.1978,0.0,0.0,0.1209716796875,0.04620361328125,0.99835205078125,2.3626708984375,-8.007659912109375,-5.5328369140625,19036849.816849817,117953846.15384614,53217435.897435896,86.3924,1.0,2.0,1.0,1.0,2.0,50.0,,0 days 00:00:00.001000
2023-11-16 11:24:43.137,0.0,-0.020577436,0.49362656,0.0,0.0,0.06980872,0.0024415539,0.0,0.0,0.49280104,0.6102755,0.0,0.0,1.145928,0.752509,0.0,0.0,0.7741046,0.55179363,0.0,789.34064,790.54944,775.2381,840.10986,735.34796,0.0,0.0,0.1209716796875,0.04620361328125,0.99835205078125,2.3626708984375,-8.007659912109375,-5.5328369140625,19036849.816849817,117953846.15384614,53217435.897435896,86.3924,1.0,2.0,1.0,1.0,2.0,50.0,,0 days 00:00:00.001000
2023-11-16 11:24:43.137,0.0,-0.020577436,0.49362656,0.0,0.0,0.06980872,0.0024415539,0.0,0.0,0.49280104,0.6102755,0.0,0.0,1.145928,0.752509,0.0,0.0,0.7741046,0.55179363,0.0,785.31134,775.64105,778.46155,846.9597,768.7912,0.0,0.0,0.1209716796875,0.04620361328125,0.99835205078125,2.3626708984375,-8.007659912109375,-5.5328369140625,19036849.816849817,117953846.15384614,53217435.897435896,86.3924,1.0,2.0,1.0,1.0,2.0,50.0,,0 days 00:00:00
2023-11-16 11:24:43.137,0.0,-0.020577436,0.49362656,0.0,0.0,0.06980872,0.0024415539,0.0,0.0,0.49280104,0.6102755,0.0,0.0,1.145928,0.752509,0.0,0.0,0.7741046,0.55179363,0.0,784.5055,793.36993,791.75824,813.5165,718.8278,0.0,0.0,0.1209716796875,0.04620361328125,0.99835205078125,2.3626708984375,-8.007659912109375,-5.5328369140625,19036849.816849817,117953846.15384614,53217435.897435896,86.3924,1.0,2.0,1.0,1.0,2.0,50.0,,0 days 00:00:00
2023-11-16 11:24:43.138,0.0,-0.020577436,0.49362656,0.0,0.0,0.06980872,0.0024415539,0.0,0.0,0.49280104,0.6102755,0.0,0.0,1.145928,0.752509,0.0,0.0,0.7741046,0.55179363,0.0,790.9524,799.41394,790.54944,802.6374,734.1392,0.0,0.0,0.1209716796875,0.04620361328125,0.99835205078125,2.3626708984375,-8.007659912109375,-5.5328369140625,19036849.816849817,117953846.15384614,53217435.897435896,86.3924,1.0,2.0,1.0,1.0,2.0,50.0,,0 days 00:00:00.001000
2023-11-16 11:24:43.138,0.0,-0.020577436,0.49362656,0.0,0.0,0.06980872,0.0024415539,0.0,0.0,0.49280104,0.6102755,0.0,0.0,1.145928,0.752509,0.0,0.0,0.7741046,0.55179363,0.0,770.40295,805.4579,774.83514,803.44324,885.2381,0.0,0.0,0.1209716796875,0.04620361328125,0.99835205078125,2.3626708984375,-8.007659912109375,-5.5328369140625,19036849.816849817,117953846.15384614,53217435.897435896,86.3924,1.0,2.0,1.0,1.0,2.0,50.0,,0 days 00:00:00
2023-11-16 11:24:43.138,0.0,-0.020577436,0.49362656,0.0,0.0,0.06980872,0.0024415539,0.0,0.0,0.49280104,0.6102755,0.0,0.0,1.145928,0.752509,0.0,0.0,0.7741046,0.55179363,0.0,749.0476,822.381,773.6264,796.99634,772.4176,0.0,0.0,0.1209716796875,0.04620361328125,0.99835205078125,2.3626708984375,-8.007659912109375,-5.5328369140625,19036849.816849817,117953846.15384614,53217435.897435896,86.3924,1.0,2.0,1.0,1.0,2.0,50.0,,0 days 00:00:00
2023-11-16 11:24:43.139,0.0,-0.020577436,0.49362656,0.0,0.0,0.06980872,0.0024415539,0.0,0.0,0.49280104,0.6102755,0.0,0.0,1.145928,0.752509,0.0,0.0,0.7741046,0.55179363,0.0,755.89746,830.4396,794.9817,797.3993,605.2015,0.0,0.0,0.1209716796875,0.04620361328125,0.99835205078125,2.3626708984375,-8.007659912109375,-5.5328369140625,19036849.816849817,117953846.15384614,53217435.897435896,86.3924,1.0,2.0,1.0,1.0,2.0,50.0,,0 days 00:00:00.001000
2023-11-16 11:24:43.139,0.0,-0.020577436,0.49362656,0.0,0.0,0.06980872,0.0024415539,0.0,0.0,0.49280104,0.6102755,0.0,0.0,1.145928,0.752509,0.0,0.0,0.7741046,0.55179363,0.0,741.39197,800.2198,799.011,795.38464,693.44324,0.0,0.0,0.1209716796875,0.04620361328125,0.99835205078125,2.3626708984375,-8.007659912109375,-5.5328369140625,19036849.816849817,117953846.15384614,53217435.897435896,86.3924,1.0,2.0,1.0,1.0,2.0,50.0,,0 days 00:00:00
2023-11-16 11:24:43.139,0.0,-0.020577436,0.49362656,0.0,0.0,0.06980872,0.0024415539,0.0,0.0,0.49280104,0.6102755,0.0,0.0,1.145928,0.752509,0.0,0.0,0.7741046,0.55179363,0.0,740.18317,788.1319,777.6557,793.36993,838.0952,0.0,0.0,0.1209716796875,0.04620361328125,0.99835205078125,2.3626708984375,-8.007659912109375,-5.5328369140625,19036849.816849817,117953846.15384614,53217435.897435896,86.3924,1.0,2.0,1.0,1.0,2.0,50.0,,0 days 00:00:00
2023-11-16 11:24:43.199,0.0,-0.020577436,0.49362656,0.0,0.0,0.06980872,0.0024415539,0.0,0.0,0.49280104,0.6102755,0.0,0.0,1.145928,0.752509,0.0,0.0,0.7741046,0.55179363,0.0,757.1062,813.1135,779.67035,782.8938,694.2491,0.0,0.0,0.1524658203125,0.0511474609375,0.996337890625,2.46734619140625,-6.50482177734375,-6.220703125,18832967.03296703,118036849.8168498,53202930.4029304,86.3924,1.0,2.0,1.0,1.0,2.0,50.0,,0 days 00:00:00.060000
2023-11-16 11:24:43.200,0.0,-0.020577436,0.49362656,0.0,0.0,0.06980872,0.0024415539,0.0,0.0,0.49280104,0.6102755,0.0,0.0,1.145928,0.752509,0.0,0.0,0.7741046,0.55179363,0.0,760.7326,809.0842,802.23444,785.7143,561.685,0.0,0.0,0.1524658203125,0.0511474609375,0.996337890625,2.46734619140625,-6.50482177734375,-6.220703125,18832967.03296703,118036849.8168498,53202930.4029304,86.3924,1.0,2.0,1.0,1.0,2.0,50.0,,0 days 00:00:00.001000
2023-11-16 11:24:43.200,0.0,-0.020577436,0.49362656,0.0,0.0,0.06980872,0.0024415539,0.0,0.0,0.49280104,0.6102755,0.0,0.0,1.145928,0.752509,0.0,0.0,0.7741046,0.55179363,0.0,756.30035,809.89014,797.8022,778.46155,640.2564,0.0,0.0,0.1524658203125,0.0511474609375,0.996337890625,2.46734619140625,-6.50482177734375,-6.220703125,18832967.03296703,118036849.8168498,53202930.4029304,86.3924,1.0,2.0,1.0,1.0,2.0,50.0,,0 days 00:00:00
2023-11-16 11:24:43.201,0.0,-0.020577436,0.49362656,0.0,0.0,0.06980872,0.0024415539,0.0,0.0,0.49280104,0.6102755,0.0,0.0,1.145928,0.752509,0.0,0.0,0.7741046,0.55179363,0.0,759.5238,799.41394,785.31134,782.8938,711.5751,0.0,0.0,0.1524658203125,0.0511474609375,0.996337890625,2.46734619140625,-6.50482177734375,-6.220703125,18832967.03296703,118036849.8168498,53202930.4029304,86.3924,1.0,2.0,1.0,1.0,2.0,50.0,,0 days 00:00:00.001000
2023-11-16 11:24:43.201,0.0,-0.020577436,0.49362656,0.0,0.0,0.06980872,0.0024415539,0.0,0.0,0.49280104,0.6102755,0.0,0.0,1.145928,0.752509,0.0,0.0,0.7741046,0.55179363,0.0,781.685,808.2784,771.6117,802.23444,740.989,0.0,0.0,0.1524658203125,0.0511474609375,0.996337890625,2.46734619140625,-6.50482177734375,-6.220703125,18832967.03296703,118036849.8168498,53202930.4029304,86.3924,1.0,2.0,1.0,1.0,2.0,50.0,,0 days 00:00:00
2023-11-16 11:24:43.201,0.0,-0.020577436,0.49362656,0.0,0.0,0.06980872,0.0024415539,0.0,0.0,0.49280104,0.6102755,0.0,0.0,1.145928,0.752509,0.0,0.0,0.7741046,0.55179363,0.0,774.83514,821.1722,772.01465,800.2198,776.4469,0.0,0.0,0.1524658203125,0.0511474609375,0.996337890625,2.46734619140625,-6.50482177734375,-6.220703125,18832967.03296703,118036849.8168498,53202930.4029304,86.3924,1.0,2.0,1.0,1.0,2.0,50.0,,0 days 00:00:00
2023-11-16 11:24:43.202,0.0,-0.020577436,0.49362656,0.0,0.0,0.06980872,0.0024415539,0.0,0.0,0.49280104,0.6102755,0.0,0.0,1.145928,0.752509,0.0,0.0,0.7741046,0.55179363,0.0,755.09155,818.3516,776.04395,801.02563,923.1135,0.0,0.0,0.1524658203125,0.0511474609375,0.996337890625,2.46734619140625,-6.50482177734375,-6.220703125,18832967.03296703,118036849.8168498,53202930.4029304,86.3924,1.0,2.0,1.0,1.0,2.0,50.0,,0 days 00:00:00.001000
2023-11-16 11:24:43.202,0.0,-0.020577436,0.49362656,0.0,0.0,0.06980872,0.0024415539,0.0,0.0,0.49280104,0.6102755,0.0,0.0,1.145928,0.752509,0.0,0.0,0.7741046,0.55179363,0.0,759.92676,821.978,785.7143,824.7985,1018.60803,0.0,0.0,0.1524658203125,0.0511474609375,0.996337890625,2.46734619140625,-6.50482177734375,-6.220703125,18832967.03296703,118036849.8168498,53202930.4029304,86.3924,1.0,2.0,1.0,1.0,2.0,50.0,,0 days 00:00:00
2023-11-16 11:24:43.203,0.0,-0.020577436,0.49362656,0.0,0.0,0.06980872,0.0024415539,0.0,0.0,0.49280104,0.6102755,0.0,0.0,1.145928,0.752509,0.0,0.0,0.7741046,0.55179363,0.0,773.22345,830.4396,796.1905,823.5897,791.3553,0.0,0.0,0.1524658203125,0.0511474609375,0.996337890625,2.46734619140625,-6.50482177734375,-6.220703125,18832967.03296703,118036849.8168498,53202930.4029304,86.3924,1.0,2.0,1.0,1.0,2.0,50.0,,0 days 00:00:00.001000
2023-11-16 11:24:43.203,0.0,-0.020577436,0.49362656,0.0,0.0,0.06980872,0.0024415539,0.0,0.0,0.49280104,0.6102755,0.0,0.0,1.145928,0.752509,0.0,0.0,0.7741046,0.55179363,0.0,794.57874,824.3956,787.326,826.4103,689.011,0.0,0.0,0.1524658203125,0.0511474609375,0.996337890625,2.46734619140625,-6.50482177734375,-6.220703125,18832967.03296703,118036849.8168498,53202930.4029304,86.3924,1.0,2.0,1.0,1.0,2.0,50.0,,0 days 00:00:00
2023-11-16 11:24:43.203,0.0,-0.020577436,0.49362656,0.0,0.0,0.06980872,0.0024415539,0.0,0.0,0.49280104,0.6102755,0.0,0.0,1.145928,0.752509,0.0,0.0,0.7741046,0.55179363,0.0,832.0513,801.8315,788.1319,862.27106,797.8022,0.0,0.0,0.1524658203125,0.0511474609375,0.996337890625,2.46734619140625,-6.50482177734375,-6.220703125,18832967.03296703,118036849.8168498,53202930.4029304,86.3924,1.0,2.0,1.0,1.0,2.0,50.0,,0 days 00:00:00
2023-11-16 11:24:43.204,0.0,-0.020577436,0.49362656,0.0,0.0,0.06980872,0.0024415539,0.0,0.0,0.49280104,0.6102755,0.0,0.0,1.145928,0.752509,0.0,0.0,0.7741046,0.55179363,0.0,828.022,794.9817,777.6557,864.2857,819.9634,0.0,0.0,0.1524658203125,0.0511474609375,0.996337890625,2.46734619140625,-6.50482177734375,-6.220703125,18832967.03296703,118036849.8168498,53202930.4029304,86.3924,1.0,2.0,1.0,1.0,2.0,50.0,,0 days 00:00:00.001000
2023-11-16 11:24:43.230,0.0,-0.020577436,0.49362656,0.0,0.0,0.06980872,0.0024415539,0.0,0.0,0.49280104,0.6102755,0.0,0.0,1.145928,0.752509,0.0,0.0,0.7741046,0.55179363,0.0,803.44324,811.0989,764.7619,822.7839,738.1685,0.0,0.0,0.1624755859375,0.04803466796875,0.9854736328125,3.27484130859375,-5.9814453125,-2.51220703125,18832967.03296703,118036849.8168498,53202930.4029304,86.3924,1.0,2.0,1.0,1.0,2.0,50.0,,0 days 00:00:00.026000
2023-11-16 11:24:43.230,0.0,-0.020577436,0.49362656,0.0,0.0,0.06980872,0.0024415539,0.0,0.0,0.49280104,0.6102755,0.0,0.0,1.145928,0.752509,0.0,0.0,0.7741046,0.55179363,0.0,805.05493,812.3077,775.2381,815.5311,736.9597,0.0,0.0,0.1624755859375,0.04803466796875,0.9854736328125,3.27484130859375,-5.9814453125,-2.51220703125,18832967.03296703,118036849.8168498,53202930.4029304,86.3924,1.0,2.0,1.0,1.0,2.0,50.0,,0 days 00:00:00
2023-11-16 11:24:43.231,0.0,-0.020577436,0.49362656,0.0,0.0,0.06980872,0.0024415539,0.0,0.0,0.49280104,0.6102755,0.0,0.0,1.145928,0.752509,0.0,0.0,0.7741046,0.55179363,0.0,790.14655,796.1905,777.6557,825.2015,882.4176,0.0,0.0,0.1624755859375,0.04803466796875,0.9854736328125,3.27484130859375,-5.9814453125,-2.51220703125,18832967.03296703,118036849.8168498,53202930.4029304,86.3924,1.0,2.0,1.0,1.0,2.0,50.0,,0 days 00:00:00.001000
2023-11-16 11:24:43.231,0.0,-0.054807656,0.49362656,0.0,0.0,0.0007320796,0.0024415539,0.0,0.0,0.49280104,0.6102755,0.0,0.0,1.1630323,0.752509,0.0,0.0,0.7888977,0.55179363,0.0,796.99634,808.68134,781.28204,815.5311,767.5824,0.0,0.0,0.1624755859375,0.04803466796875,0.9854736328125,3.27484130859375,-5.9814453125,-2.51220703125,18832967.03296703,118036849.8168498,53202930.4029304,86.3924,1.0,2.0,1.0,1.0,2.0,50.0,,0 days 00:00:00
2023-11-16 11:24:43.232,0.0,-0.054807656,0.49362656,0.0,0.0,0.0007320796,0.0024415539,0.0,0.0,0.49280104,0.6102755,0.0,0.0,1.1630323,0.752509,0.0,0.0,0.7888977,0.55179363,0.0,820.3663,820.3663,790.54944,785.31134,669.2674,0.0,0.0,0.1624755859375,0.04803466796875,0.9854736328125,3.27484130859375,-5.9814453125,-2.51220703125,18832967.03296703,118036849.8168498,53202930.4029304,86.3924,1.0,2.0,1.0,1.0,2.0,50.0,,0 days 00:00:00.001000
2023-11-16 11:24:43.233,0.0,-0.054807656,0.49362656,0.0,0.0,0.0007320796,0.0024415539,0.0,0.0,0.49280104,0.6102755,0.0,0.0,1.1630323,0.752509,0.0,0.0,0.7888977,0.55179363,0.0,820.3663,809.4872,789.34064,763.5531,780.4762,0.0,0.0,0.1624755859375,0.04803466796875,0.9854736328125,3.27484130859375,-5.9814453125,-2.51220703125,18832967.03296703,118036849.8168498,53202930.4029304,86.3924,1.0,2.0,1.0,1.0,2.0,50.0,,0 days 00:00:00.001000
2023-11-16 11:24:43.233,0.0,-0.054807656,0.49362656,0.0,0.0,0.0007320796,0.0024415539,0.0,0.0,0.49280104,0.6102755,0.0,0.0,1.1630323,0.752509,0.0,0.0,0.7888977,0.55179363,0.0,812.71063,806.6667,776.04395,799.011,1014.9817,0.0,0.0,0.1624755859375,0.04803466796875,0.9854736328125,3.27484130859375,-5.9814453125,-2.51220703125,18832967.03296703,118036849.8168498,53202930.4029304,86.3924,1.0,2.0,1.0,1.0,2.0,50.0,,0 days 00:00:00
2023-11-16 11:24:43.233,0.0,-0.054807656,0.49362656,0.0,0.0,0.0007320796,0.0024415539,0.0,0.0,0.49280104,0.6102755,0.0,0.0,1.1630323,0.752509,0.0,0.0,0.7888977,0.55179363,0.0,793.7729,817.1429,784.10254,778.46155,832.0513,0.0,0.0,0.1624755859375,0.04803466796875,0.9854736328125,3.27484130859375,-5.9814453125,-2.51220703125,18832967.03296703,118036849.8168498,53202930.4029304,86.3924,1.0,2.0,1.0,1.0,2.0,50.0,,0 days 00:00:00
2023-11-16 11:24:43.233,0.0,-0.054807656,0.49362656,0.0,0.0,0.0007320796,0.0024415539,0.0,0.0,0.49280104,0.6102755,0.0,0.0,1.1630323,0.752509,0.0,0.0,0.7888977,0.55179363,0.0,792.5641,809.0842,805.8608,754.2857,572.96704,0.0,0.0,0.1624755859375,0.04803466796875,0.9854736328125,3.27484130859375,-5.9814453125,-2.51220703125,18832967.03296703,118036849.8168498,53202930.4029304,86.3924,1.0,2.0,1.0,1.0,2.0,50.0,,0 days 00:00:00
2023-11-16 11:24:43.234,0.0,-0.054807656,0.49362656,0.0,0.0,0.0007320796,0.0024415539,0.0,0.0,0.49280104,0.6102755,0.0,0.0,1.1630323,0.752509,0.0,0.0,0.7888977,0.55179363,0.0,798.60803,782.8938,787.72894,751.8681,590.696,0.0,0.0,0.1624755859375,0.04803466796875,0.9854736328125,3.27484130859375,-5.9814453125,-2.51220703125,18832967.03296703,118036849.8168498,53202930.4029304,86.3924,1.0,2.0,1.0,1.0,2.0,50.0,,0 days 00:00:00.001000
2023-11-16 11:24:43.234,0.0,-0.054807656,0.49362656,0.0,0.0,0.0007320796,0.0024415539,0.0,0.0,0.49280104,0.6102755,0.0,0.0,1.1630323,0.752509,0.0,0.0,0.7888977,0.55179363,0.0,811.9048,783.69965,777.6557,734.1392,568.93774,0.0,0.0,0.1624755859375,0.04803466796875,0.9854736328125,3.27484130859375,-5.9814453125,-2.51220703125,18832967.03296703,118036849.8168498,53202930.4029304,86.3924,1.0,2.0,1.0,1.0,2.0,50.0,,0 days 00:00:00
2023-11-16 11:24:43.234,0.0,-0.054807656,0.49362656,0.0,0.0,0.0007320796,0.0024415539,0.0,0.0,0.49280104,0.6102755,0.0,0.0,1.1630323,0.752509,0.0,0.0,0.7888977,0.55179363,0.0,812.3077,807.47253,796.1905,740.58606,494.3956,0.0,0.0,0.1624755859375,0.04803466796875,0.9854736328125,3.27484130859375,-5.9814453125,-2.51220703125,18832967.03296703,118036849.8168498,53202930.4029304,86.3924,1.0,2.0,1.0,1.0,2.0,50.0,,0 days 00:00:00
2023-11-16 11:24:43.298,0.0,-0.054807656,0.49362656,0.0,0.0,0.0007320796,0.0024415539,0.0,0.0,0.49280104,0.6102755,0.0,0.0,1.1630323,0.752509,0.0,0.0,0.7888977,0.55179363,0.0,800.2198,834.87177,802.23444,719.6337,450.07327,0.0,0.0,0.1624755859375,0.04803466796875,0.9854736328125,3.27484130859375,-5.9814453125,-2.51220703125,18748351.648351647,117997362.63736264,53227912.08791209,86.3924,1.0,2.0,1.0,1.0,2.0,50.0,,0 days 00:00:00.064000
2023-11-16 11:24:43.299,0.0,-0.054807656,0.49362656,0.0,0.0,0.0007320796,0.0024415539,0.0,0.0,0.49280104,0.6102755,0.0,0.0,1.1630323,0.752509,0.0,0.0,0.7888977,0.55179363,0.0,804.2491,809.89014,793.7729,722.8571,533.8828,0.0,0.0,0.1624755859375,0.04803466796875,0.9854736328125,3.27484130859375,-5.9814453125,-2.51220703125,18748351.648351647,117997362.63736264,53227912.08791209,86.3924,1.0,2.0,1.0,1.0,2.0,50.0,,0 days 00:00:00.001000
2023-11-16 11:24:43.299,0.0,-0.054807656,0.49362656,0.0,0.0,0.0007320796,0.0024415539,0.0,0.0,0.49280104,0.6102755,0.0,0.0,1.1630323,0.752509,0.0,0.0,0.7888977,0.55179363,0.0,832.4542,763.1502,782.8938,758.71796,636.63007,0.0,0.0,0.1624755859375,0.04803466796875,0.9854736328125,3.27484130859375,-5.9814453125,-2.51220703125,18748351.648351647,117997362.63736264,53227912.08791209,86.3924,1.0,2.0,1.0,1.0,2.0,50.0,,0 days 00:00:00
2023-11-16 11:24:43.299,0.0,-0.054807656,0.49362656,0.0,0.0,0.0007320796,0.0024415539,0.0,0.0,0.49280104,0.6102755,0.0,0.0,1.1630323,0.752509,0.0,0.0,0.7888977,0.55179363,0.0,822.7839,790.14655,783.69965,738.97437,552.8205,0.0,0.0,0.1624755859375,0.04803466796875,0.9854736328125,3.27484130859375,-5.9814453125,-2.51220703125,18748351.648351647,117997362.63736264,53227912.08791209,86.3924,1.0,2.0,1.0,1.0,2.0,50.0,,0 days 00:00:00
2023-11-16 11:24:43.300,0.0,-0.054807656,0.49362656,0.0,0.0,0.0007320796,0.0024415539,0.0,0.0,0.49280104,0.6102755,0.0,0.0,1.1630323,0.752509,0.0,0.0,0.7888977,0.55179363,0.0,795.78754,832.4542,788.1319,728.9011,544.7619,0.0,0.0,0.1624755859375,0.04803466796875,0.9854736328125,3.27484130859375,-5.9814453125,-2.51220703125,18748351.648351647,117997362.63736264,53227912.08791209,86.3924,1.0,2.0,1.0,1.0,2.0,50.0,,0 days 00:00:00.001000
2023-11-16 11:24:43.300,0.0,-0.054807656,0.49362656,0.0,0.0,0.0007320796,0.0024415539,0.0,0.0,0.49280104,0.6102755,0.0,0.0,1.1630323,0.752509,0.0,0.0,0.7888977,0.55179363,0.0,821.1722,818.7546,778.0586,757.1062,738.1685,0.0,0.0,0.1624755859375,0.04803466796875,0.9854736328125,3.27484130859375,-5.9814453125,-2.51220703125,18748351.648351647,117997362.63736264,53227912.08791209,86.3924,1.0,2.0,1.0,1.0,2.0,50.0,,0 days 00:00:00
2023-11-16 11:24:43.301,0.0,-0.054807656,0.49362656,0.0,0.0,0.0007320796,0.0024415539,0.0,0.0,0.49280104,0.6102755,0.0,0.0,1.1630323,0.752509,0.0,0.0,0.7888977,0.55179363,0.0,791.3553,799.81683,785.31134,741.39197,845.34796,0.0,0.0,0.1624755859375,0.04803466796875,0.9854736328125,3.27484130859375,-5.9814453125,-2.51220703125,18748351.648351647,117997362.63736264,53227912.08791209,86.3924,1.0,2.0,1.0,1.0,2.0,50.0,,0 days 00:00:00.001000
2023-11-16 11:24:43.301,0.0,-0.054807656,0.49362656,0.0,0.0,0.0007320796,0.0024415539,0.0,0.0,0.49280104,0.6102755,0.0,0.0,1.1630323,0.752509,0.0,0.0,0.7888977,0.55179363,0.0,724.4689,809.4872,791.75824,708.3516,634.61536,0.0,0.0,0.1624755859375,0.04803466796875,0.9854736328125,3.27484130859375,-5.9814453125,-2.51220703125,18748351.648351647,117997362.63736264,53227912.08791209,86.3924,1.0,2.0,1.0,1.0,2.0,50.0,,0 days 00:00:00
2023-11-16 11:24:43.301,0.0,-0.054807656,0.49362656,0.0,0.0,0.0007320796,0.0024415539,0.0,0.0,0.49280104,0.6102755,0.0,0.0,1.1630323,0.752509,0.0,0.0,0.7888977,0.55179363,0.0,736.9597,821.1722,785.31134,737.3626,618.0952,0.0,0.0,0.1624755859375,0.04803466796875,0.9854736328125,3.27484130859375,-5.9814453125,-2.51220703125,18748351.648351647,117997362.63736264,53227912.08791209,86.3924,1.0,2.0,1.0,1.0,2.0,50.0,,0 days 00:00:00
2023-11-16 11:24:43.302,0.0,-0.054807656,0.49362656,0.0,0.0,0.0007320796,0.0024415539,0.0,0.0,0.49280104,0.6102755,0.0,0.0,1.1630323,0.752509,0.0,0.0,0.7888977,0.55179363,0.0,728.0952,815.9341,790.54944,759.5238,747.4359,0.0,0.0,0.1624755859375,0.04803466796875,0.9854736328125,3.27484130859375,-5.9814453125,-2.51220703125,18748351.648351647,117997362.63736264,53227912.08791209,86.3924,1.0,2.0,1.0,1.0,2.0,50.0,,0 days 00:00:00.001000
2023-11-16 11:24:43.302,0.0,-0.054807656,0.49362656,0.0,0.0,0.0007320796,0.0024415539,0.0,0.0,0.49280104,0.6102755,0.0,0.0,1.1630323,0.752509,0.0,0.0,0.7888977,0.55179363,0.0,701.50183,780.07324,805.8608,765.16486,716.8132,0.0,0.0,0.1624755859375,0.04803466796875,0.9854736328125,3.27484130859375,-5.9814453125,-2.51220703125,18748351.648351647,117997362.63736264,53227912.08791209,86.3924,1.0,2.0,1.0,1.0,2.0,50.0,,0 days 00:00:00
2023-11-16 11:24:43.302,0.0,-0.054807656,0.49362656,0.0,0.0,0.0007320796,0.0024415539,0.0,0.0,0.49280104,0.6102755,0.0,0.0,1.1630323,0.752509,0.0,0.0,0.7888977,0.55179363,0.0,716.0073,768.3883,794.57874,776.8498,643.47986,0.0,0.0,0.1624755859375,0.04803466796875,0.9854736328125,3.27484130859375,-5.9814453125,-2.51220703125,18748351.648351647,117997362.63736264,53227912.08791209,86.3924,1.0,2.0,1.0,1.0,2.0,50.0,,0 days 00:00:00
2023-11-16 11:24:43.327,0.0,-0.054807656,0.49362656,0.0,0.0,0.0007320796,0.0024415539,0.0,0.0,0.49280104,0.6102755,0.0,0.0,1.1630323,0.752509,0.0,0.0,0.7888977,0.55179363,0.0,707.5458,799.41394,785.7143,763.95605,612.4542,0.0,0.0,0.16217041015625,0.04754638671875,0.9979248046875,3.12530517578125,-6.497344970703125,-1.592559814453125,18748351.648351647,117997362.63736264,53227912.08791209,86.3924,1.0,2.0,1.0,1.0,2.0,50.0,,0 days 00:00:00.025000
2023-11-16 11:24:43.328,0.0,-0.054807656,0.49362656,0.0,0.0,0.0007320796,0.0024415539,0.0,0.0,0.49280104,0.6102755,0.0,0.0,1.1630323,0.752509,0.0,0.0,0.7888977,0.55179363,0.0,700.696,796.5934,798.60803,762.3443,684.17584,0.0,0.0,0.16217041015625,0.04754638671875,0.9979248046875,3.12530517578125,-6.497344970703125,-1.592559814453125,18748351.648351647,117997362.63736264,53227912.08791209,86.3924,1.0,2.0,1.0,1.0,2.0,50.0,,0 days 00:00:00.001000
2023-11-16 11:24:43.328,0.0,-0.054807656,0.49362656,0.0,0.0,0.0007320796,0.0024415539,0.0,0.0,0.49280104,0.6102755,0.0,0.0,1.1630323,0.752509,0.0,0.0,0.7888977,0.55179363,0.0,679.34064,779.67035,789.7436,774.43225,709.15753,0.0,0.0,0.16217041015625,0.04754638671875,0.9979248046875,3.12530517578125,-6.497344970703125,-1.592559814453125,18748351.648351647,117997362.63736264,53227912.08791209,86.3924,1.0,2.0,1.0,1.0,2.0,50.0,,0 days 00:00:00
2023-11-16 11:24:43.328,0.0,-0.054807656,0.49362656,0.0,0.0,0.0007320796,0.0024415539,0.0,0.0,0.49280104,0.6102755,0.0,0.0,1.1630323,0.752509,0.0,0.0,0.7888977,0.55179363,0.0,672.49084,788.93774,792.96704,763.95605,681.75824,0.0,0.0,0.16217041015625,0.04754638671875,0.9979248046875,3.12530517578125,-6.497344970703125,-1.592559814453125,18748351.648351647,117997362.63736264,53227912.08791209,86.3924,1.0,2.0,1.0,1.0,2.0,50.0,,0 days 00:00:00
2023-11-16 11:24:43.328,0.0,-0.054807656,0.49362656,0.0,0.0,0.0007320796,0.0024415539,0.0,0.0,0.49280104,0.6102755,0.0,0.0,1.1630323,0.752509,0.0,0.0,0.7888977,0.55179363,0.0,694.2491,779.67035,800.2198,778.86444,797.8022,0.0,0.0,0.16217041015625,0.04754638671875,0.9979248046875,3.12530517578125,-6.497344970703125,-1.592559814453125,18748351.648351647,117997362.63736264,53227912.08791209,86.3924,1.0,2.0,1.0,1.0,2.0,50.0,,0 days 00:00:00
2023-11-16 11:24:43.329,0.0,-0.07261398,0.49362656,0.0,0.0,-0.10822608,0.0024415539,0.0,0.0,0.49280104,0.6102755,0.0,0.0,1.1802207,0.752509,0.0,0.0,0.82199895,0.55179363,0.0,665.64105,794.17584,796.1905,782.49084,954.5421,0.0,0.0,0.16217041015625,0.04754638671875,0.9979248046875,3.12530517578125,-6.497344970703125,-1.592559814453125,18748351.648351647,117997362.63736264,53227912.08791209,86.3924,1.0,2.0,1.0,1.0,2.0,50.0,,0 days 00:00:00.001000
2023-11-16 11:24:43.330,0.0,-0.07261398,0.49362656,0.0,0.0,-0.10822608,0.0024415539,0.0,0.0,0.49280104,0.6102755,0.0,0.0,1.1802207,0.752509,0.0,0.0,0.82199895,0.55179363,0.0,644.2857,823.9927,793.36993,758.315,857.4359,0.0,0.0,0.16217041015625,0.04754638671875,0.9979248046875,3.12530517578125,-6.497344970703125,-1.592559814453125,18748351.648351647,117997362.63736264,53227912.08791209,86.3924,1.0,2.0,1.0,1.0,2.0,50.0,,0 days 00:00:00.001000
2023-11-16 11:24:43.330,0.0,-0.07261398,0.49362656,0.0,0.0,-0.10822608,0.0024415539,0.0,0.0,0.49280104,0.6102755,0.0,0.0,1.1802207,0.752509,0.0,0.0,0.82199895,0.55179363,0.0,664.83514,822.381,794.57874,749.85345,743.8095,0.0,0.0,0.16217041015625,0.04754638671875,0.9979248046875,3.12530517578125,-6.497344970703125,-1.592559814453125,18748351.648351647,117997362.63736264,53227912.08791209,86.3924,1.0,2.0,1.0,1.0,2.0,50.0,,0 days 00:00:00
2023-11-16 11:24:43.330,0.0,-0.07261398,0.49362656,0.0,0.0,-0.10822608,0.0024415539,0.0,0.0,0.49280104,0.6102755,0.0,0.0,1.1802207,0.752509,0.0,0.0,0.82199895,0.55179363,0.0,659.19415,786.9231,792.96704,734.94507,701.0989,0.0,0.0,0.16217041015625,0.04754638671875,0.9979248046875,3.12530517578125,-6.497344970703125,-1.592559814453125,18748351.648351647,117997362.63736264,53227912.08791209,86.3924,1.0,2.0,1.0,1.0,2.0,50.0,,0 days 00:00:00
2023-11-16 11:24:43.330,0.0,-0.07261398,0.49362656,0.0,0.0,-0.10822608,0.0024415539,0.0,0.0,0.49280104,0.6102755,0.0,0.0,1.1802207,0.752509,0.0,0.0,0.82199895,0.55179363,0.0,649.12085,787.72894,779.2674,767.98535,823.1868,0.0,0.0,0.16217041015625,0.04754638671875,0.9979248046875,3.12530517578125,-6.497344970703125,-1.592559814453125,18748351.648351647,117997362.63736264,53227912.08791209,86.3924,1.0,2.0,1.0,1.0,2.0,50.0,,0 days 00:00:00
2023-11-16 11:24:43.331,0.0,-0.07261398,0.49362656,0.0,0.0,-0.10822608,0.0024415539,0.0,0.0,0.49280104,0.6102755,0.0,0.0,1.1802207,0.752509,0.0,0.0,0.82199895,0.55179363,0.0,646.7033,832.8571,774.83514,744.61536,706.7399,0.0,0.0,0.16217041015625,0.04754638671875,0.9979248046875,3.12530517578125,-6.497344970703125,-1.592559814453125,18748351.648351647,117997362.63736264,53227912.08791209,86.3924,1.0,2.0,1.0,1.0,2.0,50.0,,0 days 00:00:00.001000
2023-11-16 11:24:43.331,0.0,-0.07261398,0.49362656,0.0,0.0,-0.10822608,0.0024415539,0.0,0.0,0.49280104,0.6102755,0.0,0.0,1.1802207,0.752509,0.0,0.0,0.82199895,0.55179363,0.0,614.87177,821.5751,779.2674,657.1795,526.63007,0.0,0.0,0.16217041015625,0.04754638671875,0.9979248046875,3.12530517578125,-6.497344970703125,-1.592559814453125,18748351.648351647,117997362.63736264,53227912.08791209,86.3924,1.0,2.0,1.0,1.0,2.0,50.0,,0 days 00:00:00
2023-11-16 11:24:43.395,0.0,-0.07261398,0.49362656,0.0,0.0,-0.10822608,0.0024415539,0.0,0.0,0.49280104,0.6102755,0.0,0.0,1.1802207,0.752509,0.0,0.0,0.82199895,0.55179363,0.0,621.31866,819.9634,789.34064,651.53845,595.12823,0.0,0.0,0.1544189453125,0.04534912109375,1.00006103515625,4.5458984375,-6.930999755859375,1.77947998046875,18600879.12087912,118015897.43589744,53167472.527472526,86.3924,1.0,2.0,1.0,1.0,2.0,50.0,,0 days 00:00:00.064000
2023-11-16 11:24:43.396,0.0,-0.07261398,0.49362656,0.0,0.0,-0.10822608,0.0024415539,0.0,0.0,0.49280104,0.6102755,0.0,0.0,1.1802207,0.752509,0.0,0.0,0.82199895,0.55179363,0.0,670.87915,774.83514,788.1319,641.4652,605.2015,0.0,0.0,0.1544189453125,0.04534912109375,1.00006103515625,4.5458984375,-6.930999755859375,1.77947998046875,18600879.12087912,118015897.43589744,53167472.527472526,86.3924,1.0,2.0,1.0,1.0,2.0,50.0,,0 days 00:00:00.001000
2023-11-16 11:24:43.396,0.0,-0.07261398,0.49362656,0.0,0.0,-0.10822608,0.0024415539,0.0,0.0,0.49280104,0.6102755,0.0,0.0,1.1802207,0.752509,0.0,0.0,0.82199895,0.55179363,0.0,643.8828,726.08057,791.3553,629.7802,540.7326,0.0,0.0,0.1544189453125,0.04534912109375,1.00006103515625,4.5458984375,-6.930999755859375,1.77947998046875,18600879.12087912,118015897.43589744,53167472.527472526,86.3924,1.0,2.0,1.0,1.0,2.0,50.0,,0 days 00:00:00
2023-11-16 11:24:43.396,0.0,-0.07261398,0.49362656,0.0,0.0,-0.10822608,0.0024415539,0.0,0.0,0.49280104,0.6102755,0.0,0.0,1.1802207,0.752509,0.0,0.0,0.82199895,0.55179363,0.0,602.7839,791.75824,807.47253,633.00366,528.24176,0.0,0.0,0.1544189453125,0.04534912109375,1.00006103515625,4.5458984375,-6.930999755859375,1.77947998046875,18600879.12087912,118015897.43589744,53167472.527472526,86.3924,1.0,2.0,1.0,1.0,2.0,50.0,,0 days 00:00:00
2023-11-16 11:24:43.397,0.0,-0.07261398,0.49362656,0.0,0.0,-0.10822608,0.0024415539,0.0,0.0,0.49280104,0.6102755,0.0,0.0,1.1802207,0.752509,0.0,0.0,0.82199895,0.55179363,0.0,583.0403,847.76556,774.0293,622.9304,590.293,0.0,0.0,0.1544189453125,0.04534912109375,1.00006103515625,4.5458984375,-6.930999755859375,1.77947998046875,18600879.12087912,118015897.43589744,53167472.527472526,86.3924,1.0,2.0,1.0,1.0,2.0,50.0,,0 days 00:00:00.001000
2023-11-16 11:24:43.397,0.0,-0.07261398,0.49362656,0.0,0.0,-0.10822608,0.0024415539,0.0,0.0,0.49280104,0.6102755,0.0,0.0,1.1802207,0.752509,0.0,0.0,0.82199895,0.55179363,0.0,549.59705,852.6007,763.95605,591.50183,590.293,0.0,0.0,0.1544189453125,0.04534912109375,1.00006103515625,4.5458984375,-6.930999755859375,1.77947998046875,18600879.12087912,118015897.43589744,53167472.527472526,86.3924,1.0,2.0,1.0,1.0,2.0,50.0,,0 days 00:00:00
2023-11-16 11:24:43.398,0.0,-0.07261398,0.49362656,0.0,0.0,-0.10822608,0.0024415539,0.0,0.0,0.49280104,0.6102755,0.0,0.0,1.1802207,0.752509,0.0,0.0,0.82199895,0.55179363,0.0,545.9707,827.2161,784.10254,590.696,536.7033,0.0,0.0,0.1544189453125,0.04534912109375,1.00006103515625,4.5458984375,-6.930999755859375,1.77947998046875,18600879.12087912,118015897.43589744,53167472.527472526,86.3924,1.0,2.0,1.0,1.0,2.0,50.0,,0 days 00:00:00.001000
2023-11-16 11:24:43.398,0.0,-0.07261398,0.49362656,0.0,0.0,-0.10822608,0.0024415539,0.0,0.0,0.49280104,0.6102755,0.0,0.0,1.1802207,0.752509,0.0,0.0,0.82199895,0.55179363,0.0,519.3773,861.4652,782.49084,603.9927,522.6007,0.0,0.0,0.1544189453125,0.04534912109375,1.00006103515625,4.5458984375,-6.930999755859375,1.77947998046875,18600879.12087912,118015897.43589744,53167472.527472526,86.3924,1.0,2.0,1.0,1.0,2.0,50.0,,0 days 00:00:00
2023-11-16 11:24:43.398,0.0,-0.07261398,0.49362656,0.0,0.0,-0.10822608,0.0024415539,0.0,0.0,0.49280104,0.6102755,0.0,0.0,1.1802207,0.752509,0.0,0.0,0.82199895,0.55179363,0.0,500.03662,857.4359,788.1319,614.87177,697.47253,0.0,0.0,0.1544189453125,0.04534912109375,1.00006103515625,4.5458984375,-6.930999755859375,1.77947998046875,18600879.12087912,118015897.43589744,53167472.527472526,86.3924,1.0,2.0,1.0,1.0,2.0,50.0,,0 days 00:00:00
2023-11-16 11:24:43.399,0.0,-0.07261398,0.49362656,0.0,0.0,-0.10822608,0.0024415539,0.0,0.0,0.49280104,0.6102755,0.0,0.0,1.1802207,0.752509,0.0,0.0,0.82199895,0.55179363,0.0,510.1099,835.2747,812.3077,626.9597,853.4066,0.0,0.0,0.1544189453125,0.04534912109375,1.00006103515625,4.5458984375,-6.930999755859375,1.77947998046875,18600879.12087912,118015897.43589744,53167472.527472526,86.3924,1.0,2.0,1.0,1.0,2.0,50.0,,0 days 00:00:00.001000
2023-11-16 11:24:43.399,0.0,-0.07261398,0.49362656,0.0,0.0,-0.10822608,0.0024415539,0.0,0.0,0.49280104,0.6102755,0.0,0.0,1.1802207,0.752509,0.0,0.0,0.82199895,0.55179363,0.0,475.8608,886.04395,811.50183,618.9011,603.1868,0.0,0.0,0.1544189453125,0.04534912109375,1.00006103515625,4.5458984375,-6.930999755859375,1.77947998046875,18600879.12087912,118015897.43589744,53167472.527472526,86.3924,1.0,2.0,1.0,1.0,2.0,50.0,,0 days 00:00:00
2023-11-16 11:24:43.400,0.0,-0.07261398,0.49362656,0.0,0.0,-0.10822608,0.0024415539,0.0,0.0,0.49280104,0.6102755,0.0,0.0,1.1802207,0.752509,0.0,0.0,0.82199895,0.55179363,0.0,464.9817,906.5934,786.52014,643.47986,444.43222,0.0,0.0,0.1544189453125,0.04534912109375,1.00006103515625,4.5458984375,-6.930999755859375,1.77947998046875,18600879.12087912,118015897.43589744,53167472.527472526,86.3924,1.0,2.0,1.0,1.0,2.0,50.0,,0 days 00:00:00.001000
2023-11-16 11:24:43.427,0.0,-0.07261398,0.49362656,0.0,0.0,-0.10822608,0.0024415539,0.0,0.0,0.49280104,0.6102755,0.0,0.0,1.1802207,0.752509,0.0,0.0,0.82199895,0.55179363,0.0,468.60806,904.9817,784.90845,667.25275,653.5531,0.0,0.0,0.1568603515625,0.04656982421875,0.99395751953125,2.093505859375,-3.0804443359375,3.446807861328125,18600879.12087912,118015897.43589744,53167472.527472526,86.3924,1.0,2.0,1.0,1.0,2.0,50.0,,0 days 00:00:00.027000
2023-11-16 11:24:43.428,0.0,-0.07261398,0.49362656,0.0,0.0,-0.10822608,0.0024415539,0.0,0.0,0.49280104,0.6102755,0.0,0.0,1.1802207,0.752509,0.0,0.0,0.82199895,0.55179363,0.0,450.87912,939.6337,795.38464,651.13556,620.5128,0.0,0.0,0.1568603515625,0.04656982421875,0.99395751953125,2.093505859375,-3.0804443359375,3.446807861328125,18600879.12087912,118015897.43589744,53167472.527472526,86.3924,1.0,2.0,1.0,1.0,2.0,50.0,,0 days 00:00:00.001000
2023-11-16 11:24:43.428,0.0,-0.07261398,0.49362656,0.0,0.0,-0.10822608,0.0024415539,0.0,0.0,0.49280104,0.6102755,0.0,0.0,1.1802207,0.752509,0.0,0.0,0.82199895,0.55179363,0.0,456.11722,972.27106,791.3553,676.1172,477.0696,0.0,0.0,0.1568603515625,0.04656982421875,0.99395751953125,2.093505859375,-3.0804443359375,3.446807861328125,18600879.12087912,118015897.43589744,53167472.527472526,86.3924,1.0,2.0,1.0,1.0,2.0,50.0,,0 days 00:00:00
2023-11-16 11:24:43.429,0.0,-0.07261398,0.49362656,0.0,0.0,-0.10822608,0.0024415539,0.0,0.0,0.49280104,0.6102755,0.0,0.0,1.1802207,0.752509,0.0,0.0,0.82199895,0.55179363,0.0,464.1758,948.9011,782.49084,688.60803,531.8681,0.0,0.0,0.1568603515625,0.04656982421875,0.99395751953125,2.093505859375,-3.0804443359375,3.446807861328125,18600879.12087912,118015897.43589744,53167472.527472526,86.3924,1.0,2.0,1.0,1.0,2.0,50.0,,0 days 00:00:00.001000
2023-11-16 11:24:43.429,0.0,-0.07261398,0.49362656,0.0,0.0,-0.10822608,0.0024415539,0.0,0.0,0.49280104,0.6102755,0.0,0.0,1.1802207,0.752509,0.0,0.0,0.82199895,0.55179363,0.0,469.4139,929.15753,778.86444,677.72894,651.53845,0.0,0.0,0.1568603515625,0.04656982421875,0.99395751953125,2.093505859375,-3.0804443359375,3.446807861328125,18600879.12087912,118015897.43589744,53167472.527472526,86.3924,1.0,2.0,1.0,1.0,2.0,50.0,,0 days 00:00:00
2023-11-16 11:24:43.429,0.0,-0.07261398,0.49362656,0.0,0.0,-0.10822608,0.0024415539,0.0,0.0,0.49280104,0.6102755,0.0,0.0,1.1802207,0.752509,0.0,0.0,0.82199895,0.55179363,0.0,441.61172,988.7912,796.1905,671.685,569.7436,0.0,0.0,0.1568603515625,0.04656982421875,0.99395751953125,2.093505859375,-3.0804443359375,3.446807861328125,18600879.12087912,118015897.43589744,53167472.527472526,86.3924,1.0,2.0,1.0,1.0,2.0,50.0,,0 days 00:00:00
2023-11-16 11:24:43.430,0.0,-0.07261398,0.49362656,0.0,0.0,-0.10822608,0.0024415539,0.0,0.0,0.49280104,0.6102755,0.0,0.0,1.1802207,0.752509,0.0,0.0,0.82199895,0.55179363,0.0,428.31503,1031.9048,817.9487,665.64105,431.53845,0.0,0.0,0.1568603515625,0.04656982421875,0.99395751953125,2.093505859375,-3.0804443359375,3.446807861328125,18600879.12087912,118015897.43589744,53167472.527472526,86.3924,1.0,2.0,1.0,1.0,2.0,50.0,,0 days 00:00:00.001000
2023-11-16 11:24:43.430,0.0,-0.07261398,0.49362656,0.0,0.0,-0.10822608,0.0024415539,0.0,0.0,0.49280104,0.6102755,0.0,0.0,1.1802207,0.752509,0.0,0.0,0.82199895,0.55179363,0.0,458.5348,1047.619,822.7839,664.83514,427.91208,0.0,0.0,0.1568603515625,0.04656982421875,0.99395751953125,2.093505859375,-3.0804443359375,3.446807861328125,18600879.12087912,118015897.43589744,53167472.527472526,86.3924,1.0,2.0,1.0,1.0,2.0,50.0,,0 days 00:00:00
2023-11-16 11:24:43.432,0.0,-0.07261398,0.49362656,0.0,0.0,-0.10822608,0.0024415539,0.0,0.0,0.49280104,0.6102755,0.0,0.0,1.1802207,0.752509,0.0,0.0,0.82199895,0.55179363,0.0,479.8901,1028.6813,815.12823,682.1612,621.7216,0.0,0.0,0.1568603515625,0.04656982421875,0.99395751953125,2.093505859375,-3.0804443359375,3.446807861328125,18600879.12087912,118015897.43589744,53167472.527472526,86.3924,1.0,2.0,1.0,1.0,2.0,50.0,,0 days 00:00:00.002000
2023-11-16 11:24:43.432,0.0,-0.07261398,0.49362656,0.0,0.0,-0.10822608,0.0024415539,0.0,0.0,0.49280104,0.6102755,0.0,0.0,1.1802207,0.752509,0.0,0.0,0.82199895,0.55179363,0.0,517.76556,1020.6227,819.9634,711.5751,682.5641,0.0,0.0,0.1568603515625,0.04656982421875,0.99395751953125,2.093505859375,-3.0804443359375,3.446807861328125,18600879.12087912,118015897.43589744,53167472.527472526,86.3924,1.0,2.0,1.0,1.0,2.0,50.0,,0 days 00:00:00
2023-11-16 11:24:43.432,0.0,-0.07261398,0.49362656,0.0,0.0,-0.10822608,0.0024415539,0.0,0.0,0.49280104,0.6102755,0.0,0.0,1.1802207,0.752509,0.0,0.0,0.82199895,0.55179363,0.0,533.8828,1070.989,821.978,700.696,415.42123,0.0,0.0,0.1568603515625,0.04656982421875,0.99395751953125,2.093505859375,-3.0804443359375,3.446807861328125,18600879.12087912,118015897.43589744,53167472.527472526,86.3924,1.0,2.0,1.0,1.0,2.0,50.0,,0 days 00:00:00
2023-11-16 11:24:43.433,0.0,-0.07261398,0.49362656,0.0,0.0,-0.10822608,0.0024415539,0.0,0.0,0.49280104,0.6102755,0.0,0.0,1.1802207,0.752509,0.0,0.0,0.82199895,0.55179363,0.0,525.82416,1094.762,818.3516,681.75824,384.79852,0.0,0.0,0.1568603515625,0.04656982421875,0.99395751953125,2.093505859375,-3.0804443359375,3.446807861328125,18600879.12087912,118015897.43589744,53167472.527472526,86.3924,1.0,2.0,1.0,1.0,2.0,50.0,,0 days 00:00:00.001000
2023-11-16 11:24:43.488,0.0,-0.07261398,0.49362656,0.0,0.0,-0.10822608,0.0024415539,0.0,0.0,0.49280104,0.6102755,0.0,0.0,1.1802207,0.752509,0.0,0.0,0.82199895,0.55179363,0.0,486.337,1082.2711,827.2161,666.4469,520.989,0.0,0.0,0.14959716796875,0.03887939453125,0.99273681640625,0.1495361328125,-0.859832763671875,6.23565673828125,18682271.062271062,118023956.04395604,53127179.48717949,86.3924,1.0,2.0,1.0,1.0,2.0,50.0,,0 days 00:00:00.055000
2023-11-16 11:24:43.489,0.0,-0.07261398,0.49362656,0.0,0.0,-0.10822608,0.0024415539,0.0,0.0,0.49280104,0.6102755,0.0,0.0,1.1802207,0.752509,0.0,0.0,0.82199895,0.55179363,0.0,479.08426,1092.7472,832.8571,653.1502,459.34067,0.0,0.0,0.14959716796875,0.03887939453125,0.99273681640625,0.1495361328125,-0.859832763671875,6.23565673828125,18682271.062271062,118023956.04395604,53127179.48717949,86.3924,1.0,2.0,1.0,1.0,2.0,50.0,,0 days 00:00:00.001000
2023-11-16 11:24:43.489,0.0,-0.07261398,0.49362656,0.0,0.0,-0.10822608,0.0024415539,0.0,0.0,0.49280104,0.6102755,0.0,0.0,1.1802207,0.752509,0.0,0.0,0.82199895,0.55179363,0.0,520.58606,1082.674,828.4249,665.64105,362.23444,0.0,0.0,0.14959716796875,0.03887939453125,0.99273681640625,0.1495361328125,-0.859832763671875,6.23565673828125,18682271.062271062,118023956.04395604,53127179.48717949,86.3924,1.0,2.0,1.0,1.0,2.0,50.0,,0 days 00:00:00
2023-11-16 11:24:43.490,0.0,-0.07261398,0.49362656,0.0,0.0,-0.10822608,0.0024415539,0.0,0.0,0.49280104,0.6102755,0.0,0.0,1.1802207,0.752509,0.0,0.0,0.82199895,0.55179363,0.0,518.5714,1031.5018,829.2308,676.1172,434.35898,0.0,0.0,0.14959716796875,0.03887939453125,0.99273681640625,0.1495361328125,-0.859832763671875,6.23565673828125,18682271.062271062,118023956.04395604,53127179.48717949,86.3924,1.0,2.0,1.0,1.0,2.0,50.0,,0 days 00:00:00.001000
2023-11-16 11:24:43.490,0.0,-0.07261398,0.49362656,0.0,0.0,-0.10822608,0.0024415539,0.0,0.0,0.49280104,0.6102755,0.0,0.0,1.1802207,0.752509,0.0,0.0,0.82199895,0.55179363,0.0,530.65936,1068.9744,832.8571,682.5641,463.7729,0.0,0.0,0.14959716796875,0.03887939453125,0.99273681640625,0.1495361328125,-0.859832763671875,6.23565673828125,18682271.062271062,118023956.04395604,53127179.48717949,86.3924,1.0,2.0,1.0,1.0,2.0,50.0,,0 days 00:00:00
2023-11-16 11:24:43.490,0.0,-0.07261398,0.49362656,0.0,0.0,-0.10822608,0.0024415539,0.0,0.0,0.49280104,0.6102755,0.0,0.0,1.1802207,0.752509,0.0,0.0,0.82199895,0.55179363,0.0,535.09155,1130.6227,833.2601,689.011,474.24908,0.0,0.0,0.14959716796875,0.03887939453125,0.99273681640625,0.1495361328125,-0.859832763671875,6.23565673828125,18682271.062271062,118023956.04395604,53127179.48717949,86.3924,1.0,2.0,1.0,1.0,2.0,50.0,,0 days 00:00:00
2023-11-16 11:24:43.491,0.0,-0.07261398,0.49362656,0.0,0.0,-0.10822608,0.0024415539,0.0,0.0,0.49280104,0.6102755,0.0,0.0,1.1802207,0.752509,0.0,0.0,0.82199895,0.55179363,0.0,545.56775,1120.5494,831.6484,688.60803,464.1758,0.0,0.0,0.14959716796875,0.03887939453125,0.99273681640625,0.1495361328125,-0.859832763671875,6.23565673828125,18682271.062271062,118023956.04395604,53127179.48717949,86.3924,1.0,2.0,1.0,1.0,2.0,50.0,,0 days 00:00:00.001000
2023-11-16 11:24:43.491,0.0,-0.07261398,0.49362656,0.0,0.0,-0.10822608,0.0024415539,0.0,0.0,0.49280104,0.6102755,0.0,0.0,1.1802207,0.752509,0.0,0.0,0.82199895,0.55179363,0.0,583.8461,1120.1465,818.3516,695.8608,595.5311,0.0,0.0,0.14959716796875,0.03887939453125,0.99273681640625,0.1495361328125,-0.859832763671875,6.23565673828125,18682271.062271062,118023956.04395604,53127179.48717949,86.3924,1.0,2.0,1.0,1.0,2.0,50.0,,0 days 00:00:00
2023-11-16 11:24:43.492,0.0,-0.07261398,0.49362656,0.0,0.0,-0.10822608,0.0024415539,0.0,0.0,0.49280104,0.6102755,0.0,0.0,1.1802207,0.752509,0.0,0.0,0.82199895,0.55179363,0.0,603.5897,1133.8462,813.1135,721.6484,713.1868,0.0,0.0,0.14959716796875,0.03887939453125,0.99273681640625,0.1495361328125,-0.859832763671875,6.23565673828125,18682271.062271062,118023956.04395604,53127179.48717949,86.3924,1.0,2.0,1.0,1.0,2.0,50.0,,0 days 00:00:00.001000
2023-11-16 11:24:43.492,0.0,-0.07261398,0.49362656,0.0,0.0,-0.10822608,0.0024415539,0.0,0.0,0.49280104,0.6102755,0.0,0.0,1.1802207,0.752509,0.0,0.0,0.82199895,0.55179363,0.0,608.4249,1137.0696,816.7399,700.696,435.9707,0.0,0.0,0.14959716796875,0.03887939453125,0.99273681640625,0.1495361328125,-0.859832763671875,6.23565673828125,18682271.062271062,118023956.04395604,53127179.48717949,86.3924,1.0,2.0,1.0,1.0,2.0,50.0,,0 days 00:00:00
2023-11-16 11:24:43.493,0.0,-0.07261398,0.49362656,0.0,0.0,-0.10822608,0.0024415539,0.0,0.0,0.49280104,0.6102755,0.0,0.0,1.1802207,0.752509,0.0,0.0,0.82199895,0.55179363,0.0,624.1392,1131.8315,815.9341,686.5934,451.68497,0.0,0.0,0.14959716796875,0.03887939453125,0.99273681640625,0.1495361328125,-0.859832763671875,6.23565673828125,18682271.062271062,118023956.04395604,53127179.48717949,86.3924,1.0,2.0,1.0,1.0,2.0,50.0,,0 days 00:00:00.001000
2023-11-16 11:24:43.493,0.0,-0.07261398,0.49362656,0.0,0.0,-0.10822608,0.0024415539,0.0,0.0,0.49280104,0.6102755,0.0,0.0,1.1802207,0.752509,0.0,0.0,0.82199895,0.55179363,0.0,630.58606,1120.1465,821.978,691.4286,566.52014,0.0,0.0,0.14959716796875,0.03887939453125,0.99273681640625,0.1495361328125,-0.859832763671875,6.23565673828125,18682271.062271062,118023956.04395604,53127179.48717949,86.3924,1.0,2.0,1.0,1.0,2.0,50.0,,0 days 00:00:00
2023-11-16 11:24:43.528,0.0,-0.07261398,0.49362656,0.0,0.0,-0.10822608,0.0024415539,0.0,0.0,0.49280104,0.6102755,0.0,0.0,1.1802207,0.752509,0.0,0.0,0.82199895,0.55179363,0.0,637.8388,1112.4908,824.3956,689.81683,463.7729,0.0,0.0,0.14959716796875,0.03887939453125,0.99273681640625,0.1495361328125,-0.859832763671875,6.23565673828125,18682271.062271062,118023956.04395604,53127179.48717949,86.3924,1.0,2.0,1.0,1.0,2.0,50.0,,0 days 00:00:00.035000
2023-11-16 11:24:43.528,0.0,-0.07261398,0.49362656,0.0,0.0,-0.10822608,0.0024415539,0.0,0.0,0.49280104,0.6102755,0.0,0.0,1.1802207,0.752509,0.0,0.0,0.82199895,0.55179363,0.0,666.04395,1109.6703,826.4103,709.15753,381.97803,0.0,0.0,0.14959716796875,0.03887939453125,0.99273681640625,0.1495361328125,-0.859832763671875,6.23565673828125,18682271.062271062,118023956.04395604,53127179.48717949,86.3924,1.0,2.0,1.0,1.0,2.0,50.0,,0 days 00:00:00
2023-11-16 11:24:43.529,0.0,-0.07261398,0.49362656,0.0,0.0,-0.10822608,0.0024415539,0.0,0.0,0.49280104,0.6102755,0.0,0.0,1.1802207,0.752509,0.0,0.0,0.82199895,0.55179363,0.0,659.19415,1105.238,824.7985,707.1429,432.34433,0.0,0.0,0.14959716796875,0.03887939453125,0.99273681640625,0.1495361328125,-0.859832763671875,6.23565673828125,18682271.062271062,118023956.04395604,53127179.48717949,86.3924,1.0,2.0,1.0,1.0,2.0,50.0,,0 days 00:00:00.001000
2023-11-16 11:24:43.529,0.0,-0.07261398,0.49362656,0.0,0.0,-0.10822608,0.0024415539,0.0,0.0,0.49280104,0.6102755,0.0,0.0,1.1802207,0.752509,0.0,0.0,0.82199895,0.55179363,0.0,628.5714,1098.3883,815.5311,689.41394,564.10254,0.0,0.0,0.14959716796875,0.03887939453125,0.99273681640625,0.1495361328125,-0.859832763671875,6.23565673828125,18682271.062271062,118023956.04395604,53127179.48717949,86.3924,1.0,2.0,1.0,1.0,2.0,50.0,,0 days 00:00:00
2023-11-16 11:24:43.530,0.0,-0.07261398,0.49362656,0.0,0.0,-0.10822608,0.0024415539,0.0,0.0,0.49280104,0.6102755,0.0,0.0,1.1802207,0.752509,0.0,0.0,0.82199895,0.55179363,0.0,657.1795,1087.5092,805.05493,680.9524,583.44324,0.0,0.0,0.14959716796875,0.03887939453125,0.99273681640625,0.1495361328125,-0.859832763671875,6.23565673828125,18682271.062271062,118023956.04395604,53127179.48717949,86.3924,1.0,2.0,1.0,1.0,2.0,50.0,,0 days 00:00:00.001000
2023-11-16 11:24:43.530,0.0,-0.07261398,0.49362656,0.0,0.0,-0.10822608,0.0024415539,0.0,0.0,0.49280104,0.6102755,0.0,0.0,1.1802207,0.752509,0.0,0.0,0.82199895,0.55179363,0.0,680.54944,1075.8242,796.99634,678.93774,490.76923,0.0,0.0,0.14959716796875,0.03887939453125,0.99273681640625,0.1495361328125,-0.859832763671875,6.23565673828125,18682271.062271062,118023956.04395604,53127179.48717949,86.3924,1.0,2.0,1.0,1.0,2.0,50.0,,0 days 00:00:00
2023-11-16 11:24:43.531,0.0,-0.07261398,0.49362656,0.0,0.0,-0.10822608,0.0024415539,0.0,0.0,0.49280104,0.6102755,0.0,0.0,1.1802207,0.752509,0.0,0.0,0.82199895,0.55179363,0.0,670.4762,1083.8828,792.5641,682.5641,533.0769,0.0,0.0,0.14959716796875,0.03887939453125,0.99273681640625,0.1495361328125,-0.859832763671875,6.23565673828125,18682271.062271062,118023956.04395604,53127179.48717949,86.3924,1.0,2.0,1.0,1.0,2.0,50.0,,0 days 00:00:00.001000
2023-11-16 11:24:43.531,0.0,-0.07261398,0.49362656,0.0,0.0,-0.10822608,0.0024415539,0.0,0.0,0.49280104,0.6102755,0.0,0.0,1.1802207,0.752509,0.0,0.0,0.82199895,0.55179363,0.0,672.49084,1110.0732,805.4579,684.9817,641.06226,0.0,0.0,0.14959716796875,0.03887939453125,0.99273681640625,0.1495361328125,-0.859832763671875,6.23565673828125,18682271.062271062,118023956.04395604,53127179.48717949,86.3924,1.0,2.0,1.0,1.0,2.0,50.0,,0 days 00:00:00
2023-11-16 11:24:43.532,0.0,-0.07261398,0.49362656,0.0,0.0,-0.10822608,0.0024415539,0.0,0.0,0.49280104,0.6102755,0.0,0.0,1.1802207,0.752509,0.0,0.0,0.82199895,0.55179363,0.0,700.696,1086.7032,812.3077,705.5311,568.5348,0.0,0.0,0.14959716796875,0.03887939453125,0.99273681640625,0.1495361328125,-0.859832763671875,6.23565673828125,18682271.062271062,118023956.04395604,53127179.48717949,86.3924,1.0,2.0,1.0,1.0,2.0,50.0,,0 days 00:00:00.001000
2023-11-16 11:24:43.532,0.0,-0.07261398,0.49362656,0.0,0.0,-0.10822608,0.0024415539,0.0,0.0,0.49280104,0.6102755,0.0,0.0,1.1802207,0.752509,0.0,0.0,0.82199895,0.55179363,0.0,703.1135,1054.4689,792.5641,723.2601,497.61905,0.0,0.0,0.14959716796875,0.03887939453125,0.99273681640625,0.1495361328125,-0.859832763671875,6.23565673828125,18682271.062271062,118023956.04395604,53127179.48717949,86.3924,1.0,2.0,1.0,1.0,2.0,50.0,,0 days 00:00:00
2023-11-16 11:24:43.534,0.0,-0.07261398,0.49362656,0.0,0.0,-0.10822608,0.0024415539,0.0,0.0,0.49280104,0.6102755,0.0,0.0,1.1802207,0.752509,0.0,0.0,0.82199895,0.55179363,0.0,723.663,1081.4652,780.07324,730.5128,543.95605,0.0,0.0,0.14959716796875,0.03887939453125,0.99273681640625,0.1495361328125,-0.859832763671875,6.23565673828125,18682271.062271062,118023956.04395604,53127179.48717949,86.3924,1.0,2.0,1.0,1.0,2.0,50.0,,0 days 00:00:00.002000
2023-11-16 11:24:43.534,0.0,-0.07261398,0.49362656,0.0,0.0,-0.10822608,0.0024415539,0.0,0.0,0.49280104,0.6102755,0.0,0.0,1.1802207,0.752509,0.0,0.0,0.82199895,0.55179363,0.0,724.0659,1075.0183,784.90845,753.47986,796.1905,0.0,0.0,0.14959716796875,0.03887939453125,0.99273681640625,0.1495361328125,-0.859832763671875,6.23565673828125,18682271.062271062,118023956.04395604,53127179.48717949,86.3924,1.0,2.0,1.0,1.0,2.0,50.0,,0 days 00:00:00
2023-11-16 11:24:43.571,0.0,-0.07261398,0.49362656,0.0,0.0,-0.10822608,0.0024415539,0.0,0.0,0.49280104,0.6102755,0.0,0.0,1.1802207,0.752509,0.0,0.0,0.82199895,0.55179363,0.0,721.6484,1064.5421,797.8022,739.7802,708.7546,0.0,0.0,0.132080078125,0.04571533203125,0.9912109375,0.85235595703125,-1.487884521484375,8.074951171875,19134358.974358972,118027179.48717947,53095750.91575091,86.11794,1.0,2.0,1.0,1.0,2.0,50.0,,0 days 00:00:00.037000
2023-11-16 11:24:43.572,0.0,-0.07261398,0.49362656,0.0,0.0,-0.10822608,0.0024415539,0.0,0.0,0.49280104,0.6102755,0.0,0.0,1.1802207,0.752509,0.0,0.0,0.82199895,0.55179363,0.0,759.12085,1071.392,805.05493,714.3956,469.011,0.0,0.0,0.132080078125,0.04571533203125,0.9912109375,0.85235595703125,-1.487884521484375,8.074951171875,19134358.974358972,118027179.48717947,53095750.91575091,86.11794,1.0,2.0,1.0,1.0,2.0,50.0,,0 days 00:00:00.001000
2023-11-16 11:24:43.572,0.0,-0.07261398,0.49362656,0.0,0.0,-0.10822608,0.0024415539,0.0,0.0,0.49280104,0.6102755,0.0,0.0,1.1802207,0.752509,0.0,0.0,0.82199895,0.55179363,0.0,745.82416,1063.3334,798.60803,727.28937,578.60803,0.0,0.0,0.132080078125,0.04571533203125,0.9912109375,0.85235595703125,-1.487884521484375,8.074951171875,19134358.974358972,118027179.48717947,53095750.91575091,86.11794,1.0,2.0,1.0,1.0,2.0,50.0,,0 days 00:00:00
2023-11-16 11:24:43.573,0.0,-0.07261398,0.49362656,0.0,0.0,-0.10822608,0.0024415539,0.0,0.0,0.49280104,0.6102755,0.0,0.0,1.1802207,0.752509,0.0,0.0,0.82199895,0.55179363,0.0,753.0769,1043.5897,790.54944,752.674,832.4542,0.0,0.0,0.132080078125,0.04571533203125,0.9912109375,0.85235595703125,-1.487884521484375,8.074951171875,19134358.974358972,118027179.48717947,53095750.91575091,86.11794,1.0,2.0,1.0,1.0,2.0,50.0,,0 days 00:00:00.001000
2023-11-16 11:24:43.573,0.0,-0.07261398,0.49362656,0.0,0.0,-0.10822608,0.0024415539,0.0,0.0,0.49280104,0.6102755,0.0,0.0,1.1802207,0.752509,0.0,0.0,0.82199895,0.55179363,0.0,769.59705,1022.6374,789.34064,735.7509,673.2967,0.0,0.0,0.132080078125,0.04571533203125,0.9912109375,0.85235595703125,-1.487884521484375,8.074951171875,19134358.974358972,118027179.48717947,53095750.91575091,86.11794,1.0,2.0,1.0,1.0,2.0,50.0,,0 days 00:00:00
2023-11-16 11:24:43.574,0.0,-0.07261398,0.49362656,0.0,0.0,-0.10822608,0.0024415539,0.0,0.0,0.49280104,0.6102755,0.0,0.0,1.1802207,0.752509,0.0,0.0,0.82199895,0.55179363,0.0,747.8388,995.64105,787.72894,715.6044,580.2198,0.0,0.0,0.132080078125,0.04571533203125,0.9912109375,0.85235595703125,-1.487884521484375,8.074951171875,19134358.974358972,118027179.48717947,53095750.91575091,86.11794,1.0,2.0,1.0,1.0,2.0,50.0,,0 days 00:00:00.001000
2023-11-16 11:24:43.574,0.0,-0.07261398,0.49362656,0.0,0.0,-0.10822608,0.0024415539,0.0,0.0,0.49280104,0.6102755,0.0,0.0,1.1802207,0.752509,0.0,0.0,0.82199895,0.55179363,0.0,745.42126,991.6117,784.5055,762.74725,838.49817,0.0,0.0,0.132080078125,0.04571533203125,0.9912109375,0.85235595703125,-1.487884521484375,8.074951171875,19134358.974358972,118027179.48717947,53095750.91575091,86.11794,1.0,2.0,1.0,1.0,2.0,50.0,,0 days 00:00:00
2023-11-16 11:24:43.575,0.0,-0.07261398,0.49362656,0.0,0.0,-0.10822608,0.0024415539,0.0,0.0,0.49280104,0.6102755,0.0,0.0,1.1802207,0.752509,0.0,0.0,0.82199895,0.55179363,0.0,754.2857,981.9414,788.93774,755.09155,889.67035,0.0,0.0,0.132080078125,0.04571533203125,0.9912109375,0.85235595703125,-1.487884521484375,8.074951171875,19134358.974358972,118027179.48717947,53095750.91575091,86.11794,1.0,2.0,1.0,1.0,2.0,50.0,,0 days 00:00:00.001000
2023-11-16 11:24:43.575,0.0,-0.07261398,0.49362656,0.0,0.0,-0.10822608,0.0024415539,0.0,0.0,0.49280104,0.6102755,0.0,0.0,1.1802207,0.752509,0.0,0.0,0.82199895,0.55179363,0.0,776.04395,956.55676,797.8022,722.4542,673.2967,0.0,0.0,0.132080078125,0.04571533203125,0.9912109375,0.85235595703125,-1.487884521484375,8.074951171875,19134358.974358972,118027179.48717947,53095750.91575091,86.11794,1.0,2.0,1.0,1.0,2.0,50.0,,0 days 00:00:00
2023-11-16 11:24:43.576,0.0,-0.07261398,0.49362656,0.0,0.0,-0.10822608,0.0024415539,0.0,0.0,0.49280104,0.6102755,0.0,0.0,1.1802207,0.752509,0.0,0.0,0.82199895,0.55179363,0.0,788.5348,969.85345,800.6227,747.03296,663.6264,0.0,0.0,0.132080078125,0.04571533203125,0.9912109375,0.85235595703125,-1.487884521484375,8.074951171875,19134358.974358972,118027179.48717947,53095750.91575091,86.11794,1.0,2.0,1.0,1.0,2.0,50.0,,0 days 00:00:00.001000
2023-11-16 11:24:43.576,0.0,-0.07261398,0.49362656,0.0,0.0,-0.10822608,0.0024415539,0.0,0.0,0.49280104,0.6102755,0.0,0.0,1.1802207,0.752509,0.0,0.0,0.82199895,0.55179363,0.0,810.696,983.1502,795.78754,767.1795,807.0696,0.0,0.0,0.132080078125,0.04571533203125,0.9912109375,0.85235595703125,-1.487884521484375,8.074951171875,19134358.974358972,118027179.48717947,53095750.91575091,86.11794,1.0,2.0,1.0,1.0,2.0,50.0,,0 days 00:00:00
2023-11-16 11:24:43.577,0.0,-0.07261398,0.49362656,0.0,0.0,-0.10822608,0.0024415539,0.0,0.0,0.49280104,0.6102755,0.0,0.0,1.1802207,0.752509,0.0,0.0,0.82199895,0.55179363,0.0,842.1245,973.8828,799.011,784.90845,770.40295,0.0,0.0,0.132080078125,0.04571533203125,0.9912109375,0.85235595703125,-1.487884521484375,8.074951171875,19134358.974358972,118027179.48717947,53095750.91575091,86.11794,1.0,2.0,1.0,1.0,2.0,50.0,,0 days 00:00:00.001000
2023-11-16 11:24:43.609,0.0,-0.07261398,0.49362656,0.0,0.0,-0.10822608,0.0024415539,0.0,0.0,0.49280104,0.6102755,0.0,0.0,1.1802207,0.752509,0.0,0.0,0.82199895,0.55179363,0.0,815.12823,956.9597,803.44324,771.6117,621.31866,0.0,0.0,0.1282958984375,0.0430908203125,0.9864501953125,2.6318359375,-4.762725830078125,5.674896240234375,19134358.974358972,118027179.48717947,53095750.91575091,86.11794,1.0,2.0,1.0,1.0,2.0,50.0,,0 days 00:00:00.032000
2023-11-16 11:24:43.610,0.0,-0.07261398,0.49362656,0.0,0.0,-0.10822608,0.0024415539,0.0,0.0,0.49280104,0.6102755,0.0,0.0,1.1802207,0.752509,0.0,0.0,0.82199895,0.55179363,0.0,809.0842,931.1722,792.1612,749.85345,674.90845,0.0,0.0,0.1282958984375,0.0430908203125,0.9864501953125,2.6318359375,-4.762725830078125,5.674896240234375,19134358.974358972,118027179.48717947,53095750.91575091,86.11794,1.0,2.0,1.0,1.0,2.0,50.0,,0 days 00:00:00.001000
2023-11-16 11:24:43.610,0.0,-0.07261398,0.49362656,0.0,0.0,-0.10822608,0.0024415539,0.0,0.0,0.49280104,0.6102755,0.0,0.0,1.1802207,0.752509,0.0,0.0,0.82199895,0.55179363,0.0,813.5165,913.0403,787.326,772.8205,819.15753,0.0,0.0,0.1282958984375,0.0430908203125,0.9864501953125,2.6318359375,-4.762725830078125,5.674896240234375,19134358.974358972,118027179.48717947,53095750.91575091,86.11794,1.0,2.0,1.0,1.0,2.0,50.0,,0 days 00:00:00
2023-11-16 11:24:43.610,0.0,-0.07261398,0.49362656,0.0,0.0,-0.10822608,0.0024415539,0.0,0.0,0.49280104,0.6102755,0.0,0.0,1.1802207,0.752509,0.0,0.0,0.82199895,0.55179363,0.0,786.9231,903.36993,796.1905,805.05493,799.011,0.0,0.0,0.1282958984375,0.0430908203125,0.9864501953125,2.6318359375,-4.762725830078125,5.674896240234375,19134358.974358972,118027179.48717947,53095750.91575091,86.11794,1.0,2.0,1.0,1.0,2.0,50.0,,0 days 00:00:00
2023-11-16 11:24:43.611,0.0,-0.07261398,0.49362656,0.0,0.0,-0.10822608,0.0024415539,0.0,0.0,0.49280104,0.6102755,0.0,0.0,1.1802207,0.752509,0.0,0.0,0.82199895,0.55179363,0.0,776.8498,884.43225,798.60803,778.86444,798.60803,0.0,0.0,0.1282958984375,0.0430908203125,0.9864501953125,2.6318359375,-4.762725830078125,5.674896240234375,19134358.974358972,118027179.48717947,53095750.91575091,86.11794,1.0,2.0,1.0,1.0,2.0,50.0,,0 days 00:00:00.001000
2023-11-16 11:24:43.611,0.0,-0.07261398,0.49362656,0.0,0.0,-0.10822608,0.0024415539,0.0,0.0,0.49280104,0.6102755,0.0,0.0,1.1802207,0.752509,0.0,0.0,0.82199895,0.55179363,0.0,785.31134,882.8205,799.41394,746.63007,824.7985,0.0,0.0,0.1282958984375,0.0430908203125,0.9864501953125,2.6318359375,-4.762725830078125,5.674896240234375,19134358.974358972,118027179.48717947,53095750.91575091,86.11794,1.0,2.0,1.0,1.0,2.0,50.0,,0 days 00:00:00
2023-11-16 11:24:43.612,0.0,-0.07261398,0.49362656,0.0,0.0,-0.10822608,0.0024415539,0.0,0.0,0.49280104,0.6102755,0.0,0.0,1.1802207,0.752509,0.0,0.0,0.82199895,0.55179363,0.0,819.15753,848.1685,788.1319,775.2381,1070.989,0.0,0.0,0.1282958984375,0.0430908203125,0.9864501953125,2.6318359375,-4.762725830078125,5.674896240234375,19134358.974358972,118027179.48717947,53095750.91575091,86.11794,1.0,2.0,1.0,1.0,2.0,50.0,,0 days 00:00:00.001000
2023-11-16 11:24:43.612,0.0,-0.07261398,0.49362656,0.0,0.0,-0.10822608,0.0024415539,0.0,0.0,0.49280104,0.6102755,0.0,0.0,1.1802207,0.752509,0.0,0.0,0.82199895,0.55179363,0.0,799.41394,827.2161,783.2967,781.685,1066.5568,0.0,0.0,0.1282958984375,0.0430908203125,0.9864501953125,2.6318359375,-4.762725830078125,5.674896240234375,19134358.974358972,118027179.48717947,53095750.91575091,86.11794,1.0,2.0,1.0,1.0,2.0,50.0,,0 days 00:00:00
2023-11-16 11:24:43.613,0.0,-0.07261398,0.49362656,0.0,0.0,-0.10822608,0.0024415539,0.0,0.0,0.49280104,0.6102755,0.0,0.0,1.1802207,0.752509,0.0,0.0,0.82199895,0.55179363,0.0,797.3993,870.32965,799.41394,779.2674,644.68866,0.0,0.0,0.1282958984375,0.0430908203125,0.9864501953125,2.6318359375,-4.762725830078125,5.674896240234375,19134358.974358972,118027179.48717947,53095750.91575091,86.11794,1.0,2.0,1.0,1.0,2.0,50.0,,0 days 00:00:00.001000
2023-11-16 11:24:43.613,0.0,-0.07261398,0.49362656,0.0,0.0,-0.10822608,0.0024415539,0.0,0.0,0.49280104,0.6102755,0.0,0.0,1.1802207,0.752509,0.0,0.0,0.82199895,0.55179363,0.0,834.87177,878.3883,796.5934,785.7143,550.80585,0.0,0.0,0.1282958984375,0.0430908203125,0.9864501953125,2.6318359375,-4.762725830078125,5.674896240234375,19134358.974358972,118027179.48717947,53095750.91575091,86.11794,1.0,2.0,1.0,1.0,2.0,50.0,,0 days 00:00:00
2023-11-16 11:24:43.614,0.0,-0.07261398,0.49362656,0.0,0.0,-0.10822608,0.0024415539,0.0,0.0,0.49280104,0.6102755,0.0,0.0,1.1802207,0.752509,0.0,0.0,0.82199895,0.55179363,0.0,826.0073,857.03296,787.72894,755.89746,664.43225,0.0,0.0,0.1282958984375,0.0430908203125,0.9864501953125,2.6318359375,-4.762725830078125,5.674896240234375,19134358.974358972,118027179.48717947,53095750.91575091,86.11794,1.0,2.0,1.0,1.0,2.0,50.0,,0 days 00:00:00.001000
2023-11-16 11:24:43.615,0.0,-0.07261398,0.49362656,0.0,0.0,-0.10822608,0.0024415539,0.0,0.0,0.49280104,0.6102755,0.0,0.0,1.1802207,0.752509,0.0,0.0,0.82199895,0.55179363,0.0,826.0073,857.03296,787.72894,755.89746,664.43225,0.0,0.0,0.1282958984375,0.0430908203125,0.9864501953125,2.6318359375,-4.762725830078125,5.674896240234375,19134358.974358972,118027179.48717947,53095750.91575091,86.11794,1.0,2.0,1.0,1.0,2.0,50.0,/muse/elements/blink,0 days 00:00:00.001000
2023-11-16 11:24:43.614,0.0,-0.07261398,0.49362656,0.0,0.0,-0.10822608,0.0024415539,0.0,0.0,0.49280104,0.6102755,0.0,0.0,1.1802207,0.752509,0.0,0.0,0.82199895,0.55179363,0.0,805.4579,846.55676,800.2198,748.6447,655.56775,0.0,0.0,0.1282958984375,0.0430908203125,0.9864501953125,2.6318359375,-4.762725830078125,5.674896240234375,19134358.974358972,118027179.48717947,53095750.91575091,86.11794,1.0,2.0,1.0,1.0,2.0,50.0,/muse/elements/blink,-1 days +23:59:59.999000
2023-11-16 11:24:43.642,0.0,-0.07261398,0.49362656,0.0,0.0,-0.10822608,0.0024415539,0.0,0.0,0.49280104,0.6102755,0.0,0.0,1.1802207,0.752509,0.0,0.0,0.82199895,0.55179363,0.0,794.17584,828.4249,801.8315,742.6007,635.42126,0.0,0.0,0.1180419921875,0.04254150390625,0.988037109375,3.06549072265625,-4.762725830078125,2.953338623046875,19559853.47985348,117963516.48351648,53028058.60805861,85.85955,1.0,2.0,1.0,1.0,2.0,50.0,/muse/elements/blink,0 days 00:00:00.028000
2023-11-16 11:24:43.643,0.0,-0.07261398,0.49362656,0.0,0.0,-0.10822608,0.0024415539,0.0,0.0,0.49280104,0.6102755,0.0,0.0,1.1802207,0.752509,0.0,0.0,0.82199895,0.55179363,0.0,794.9817,819.5604,789.7436,740.989,688.60803,0.0,0.0,0.1180419921875,0.04254150390625,0.988037109375,3.06549072265625,-4.762725830078125,2.953338623046875,19559853.47985348,117963516.48351648,53028058.60805861,85.85955,1.0,2.0,1.0,1.0,2.0,50.0,/muse/elements/blink,0 days 00:00:00.001000
2023-11-16 11:24:43.643,0.0,-0.07261398,0.49362656,0.0,0.0,-0.10822608,0.0024415539,0.0,0.0,0.49280104,0.6102755,0.0,0.0,1.1802207,0.752509,0.0,0.0,0.82199895,0.55179363,0.0,816.7399,823.1868,784.10254,739.3773,706.337,0.0,0.0,0.1180419921875,0.04254150390625,0.988037109375,3.06549072265625,-4.762725830078125,2.953338623046875,19559853.47985348,117963516.48351648,53028058.60805861,85.85955,1.0,2.0,1.0,1.0,2.0,50.0,/muse/elements/blink,0 days 00:00:00
2023-11-16 11:24:43.644,0.0,-0.07261398,0.49362656,0.0,0.0,-0.10822608,0.0024415539,0.0,0.0,0.49280104,0.6102755,0.0,0.0,1.1802207,0.752509,0.0,0.0,0.82199895,0.55179363,0.0,838.9011,824.7985,794.17584,758.315,624.1392,0.0,0.0,0.1180419921875,0.04254150390625,0.988037109375,3.06549072265625,-4.762725830078125,2.953338623046875,19559853.47985348,117963516.48351648,53028058.60805861,85.85955,1.0,2.0,1.0,1.0,2.0,50.0,/muse/elements/blink,0 days 00:00:00.001000
2023-11-16 11:24:43.644,0.0,-0.07261398,0.49362656,0.0,0.0,-0.10822608,0.0024415539,0.0,0.0,0.49280104,0.6102755,0.0,0.0,1.1802207,0.752509,0.0,0.0,0.82199895,0.55179363,0.0,799.41394,817.1429,806.6667,787.72894,583.0403,0.0,0.0,0.1180419921875,0.04254150390625,0.988037109375,3.06549072265625,-4.762725830078125,2.953338623046875,19559853.47985348,117963516.48351648,53028058.60805861,85.85955,1.0,2.0,1.0,1.0,2.0,50.0,/muse/elements/blink,0 days 00:00:00
2023-11-16 11:24:43.644,0.0,-0.07261398,0.49362656,0.0,0.0,-0.10822608,0.0024415539,0.0,0.0,0.49280104,0.6102755,0.0,0.0,1.1802207,0.752509,0.0,0.0,0.82199895,0.55179363,0.0,735.7509,800.2198,794.57874,745.42126,778.46155,0.0,0.0,0.1180419921875,0.04254150390625,0.988037109375,3.06549072265625,-4.762725830078125,2.953338623046875,19559853.47985348,117963516.48351648,53028058.60805861,85.85955,1.0,2.0,1.0,1.0,2.0,50.0,/muse/elements/blink,0 days 00:00:00
2023-11-16 11:24:43.645,0.0,-0.07261398,0.49362656,0.0,0.0,-0.10822608,0.0024415539,0.0,0.0,0.49280104,0.6102755,0.0,0.0,1.1802207,0.752509,0.0,0.0,0.82199895,0.55179363,0.0,725.2747,790.14655,784.90845,719.6337,965.82416,0.0,0.0,0.1180419921875,0.04254150390625,0.988037109375,3.06549072265625,-4.762725830078125,2.953338623046875,19559853.47985348,117963516.48351648,53028058.60805861,85.85955,1.0,2.0,1.0,1.0,2.0,50.0,/muse/elements/blink,0 days 00:00:00.001000
2023-11-16 11:24:43.645,0.0,-0.07261398,0.49362656,0.0,0.0,-0.10822608,0.0024415539,0.0,0.0,0.49280104,0.6102755,0.0,0.0,1.1802207,0.752509,0.0,0.0,0.82199895,0.55179363,0.0,716.0073,788.93774,807.0696,727.6923,661.2088,0.0,0.0,0.1180419921875,0.04254150390625,0.988037109375,3.06549072265625,-4.762725830078125,2.953338623046875,19559853.47985348,117963516.48351648,53028058.60805861,85.85955,1.0,2.0,1.0,1.0,2.0,50.0,/muse/elements/blink,0 days 00:00:00
2023-11-16 11:24:43.646,0.0,-0.07261398,0.49362656,0.0,0.0,-0.10822608,0.0024415539,0.0,0.0,0.49280104,0.6102755,0.0,0.0,1.1802207,0.752509,0.0,0.0,0.82199895,0.55179363,0.0,693.44324,790.14655,813.1135,724.4689,600.3663,0.0,0.0,0.1180419921875,0.04254150390625,0.988037109375,3.06549072265625,-4.762725830078125,2.953338623046875,19559853.47985348,117963516.48351648,53028058.60805861,85.85955,1.0,2.0,1.0,1.0,2.0,50.0,/muse/elements/blink,0 days 00:00:00.001000
2023-11-16 11:24:43.646,0.0,-0.07261398,0.49362656,0.0,0.0,-0.10822608,0.0024415539,0.0,0.0,0.49280104,0.6102755,0.0,0.0,1.1802207,0.752509,0.0,0.0,0.82199895,0.55179363,0.0,687.3993,757.9121,805.05493,716.4103,778.46155,0.0,0.0,0.1180419921875,0.04254150390625,0.988037109375,3.06549072265625,-4.762725830078125,2.953338623046875,19559853.47985348,117963516.48351648,53028058.60805861,85.85955,1.0,2.0,1.0,1.0,2.0,50.0,/muse/elements/blink,0 days 00:00:00
2023-11-16 11:24:43.646,0.0,-0.07261398,0.49362656,0.0,0.0,-0.10822608,0.0024415539,0.0,0.0,0.49280104,0.6102755,0.0,0.0,1.1802207,0.752509,0.0,0.0,0.82199895,0.55179363,0.0,697.0696,751.8681,816.337,717.2161,668.0586,0.0,0.0,0.1180419921875,0.04254150390625,0.988037109375,3.06549072265625,-4.762725830078125,2.953338623046875,19559853.47985348,117963516.48351648,53028058.60805861,85.85955,1.0,2.0,1.0,1.0,2.0,50.0,/muse/elements/blink,0 days 00:00:00
2023-11-16 11:24:43.647,0.0,-0.07261398,0.49362656,0.0,0.0,-0.10822608,0.0024415539,0.0,0.0,0.49280104,0.6102755,0.0,0.0,1.1802207,0.752509,0.0,0.0,0.82199895,0.55179363,0.0,694.65204,784.10254,826.0073,724.87177,588.2784,0.0,0.0,0.1180419921875,0.04254150390625,0.988037109375,3.06549072265625,-4.762725830078125,2.953338623046875,19559853.47985348,117963516.48351648,53028058.60805861,85.85955,1.0,2.0,1.0,1.0,2.0,50.0,/muse/elements/blink,0 days 00:00:00.001000
2023-11-16 11:24:43.701,0.0,-0.07261398,0.49362656,0.0,0.0,-0.10822608,0.0024415539,0.0,0.0,0.49280104,0.6102755,0.0,0.0,1.1802207,0.752509,0.0,0.0,0.82199895,0.55179363,0.0,681.3553,780.07324,818.3516,728.0952,705.9341,0.0,0.0,0.1258544921875,0.0426025390625,0.99371337890625,3.75335693359375,-7.259979248046875,-2.654266357421875,19559853.47985348,117963516.48351648,53028058.60805861,85.85955,1.0,2.0,1.0,1.0,2.0,50.0,/muse/elements/blink,0 days 00:00:00.054000
2023-11-16 11:24:43.701,0.0,-0.07261398,0.49362656,0.0,0.0,-0.10822608,0.0024415539,0.0,0.0,0.49280104,0.6102755,0.0,0.0,1.1802207,0.752509,0.0,0.0,0.82199895,0.55179363,0.0,701.0989,759.92676,803.8461,716.8132,811.0989,0.0,0.0,0.1258544921875,0.0426025390625,0.99371337890625,3.75335693359375,-7.259979248046875,-2.654266357421875,19559853.47985348,117963516.48351648,53028058.60805861,85.85955,1.0,2.0,1.0,1.0,2.0,50.0,/muse/elements/blink,0 days 00:00:00
2023-11-16 11:24:43.702,0.0,-0.07261398,0.49362656,0.0,0.0,-0.10822608,0.0024415539,0.0,0.0,0.49280104,0.6102755,0.0,0.0,1.1802207,0.752509,0.0,0.0,0.82199895,0.55179363,0.0,723.663,763.95605,801.4286,750.65936,803.8461,0.0,0.0,0.1258544921875,0.0426025390625,0.99371337890625,3.75335693359375,-7.259979248046875,-2.654266357421875,19559853.47985348,117963516.48351648,53028058.60805861,85.85955,1.0,2.0,1.0,1.0,2.0,50.0,/muse/elements/blink,0 days 00:00:00.001000
2023-11-16 11:24:43.702,0.0,-0.07261398,0.49362656,0.0,0.0,-0.10822608,0.0024415539,0.0,0.0,0.49280104,0.6102755,0.0,0.0,1.1802207,0.752509,0.0,0.0,0.82199895,0.55179363,0.0,713.1868,760.7326,800.6227,761.13556,775.2381,0.0,0.0,0.1258544921875,0.0426025390625,0.99371337890625,3.75335693359375,-7.259979248046875,-2.654266357421875,19559853.47985348,117963516.48351648,53028058.60805861,85.85955,1.0,2.0,1.0,1.0,2.0,50.0,/muse/elements/blink,0 days 00:00:00
2023-11-16 11:24:43.703,0.0,-0.07261398,0.49362656,0.0,0.0,-0.10822608,0.0024415539,0.0,0.0,0.49280104,0.6102755,0.0,0.0,1.1802207,0.752509,0.0,0.0,0.82199895,0.55179363,0.0,703.1135,758.315,798.60803,736.9597,827.2161,0.0,0.0,0.1258544921875,0.0426025390625,0.99371337890625,3.75335693359375,-7.259979248046875,-2.654266357421875,19559853.47985348,117963516.48351648,53028058.60805861,85.85955,1.0,2.0,1.0,1.0,2.0,50.0,/muse/elements/blink,0 days 00:00:00.001000
2023-11-16 11:24:43.703,0.0,-0.07261398,0.49362656,0.0,0.0,-0.10822608,0.0024415539,0.0,0.0,0.49280104,0.6102755,0.0,0.0,1.1802207,0.752509,0.0,0.0,0.82199895,0.55179363,0.0,711.978,738.5714,808.68134,757.9121,896.9231,0.0,0.0,0.1258544921875,0.0426025390625,0.99371337890625,3.75335693359375,-7.259979248046875,-2.654266357421875,19559853.47985348,117963516.48351648,53028058.60805861,85.85955,1.0,2.0,1.0,1.0,2.0,50.0,/muse/elements/blink,0 days 00:00:00
2023-11-16 11:24:43.704,0.0,-0.07261398,0.49362656,0.0,0.0,-0.10822608,0.0024415539,0.0,0.0,0.49280104,0.6102755,0.0,0.0,1.1802207,0.752509,0.0,0.0,0.82199895,0.55179363,0.0,716.0073,718.8278,814.3223,775.64105,865.09155,0.0,0.0,0.1258544921875,0.0426025390625,0.99371337890625,3.75335693359375,-7.259979248046875,-2.654266357421875,19559853.47985348,117963516.48351648,53028058.60805861,85.85955,1.0,2.0,1.0,1.0,2.0,50.0,/muse/elements/blink,0 days 00:00:00.001000
2023-11-16 11:24:43.704,0.0,-0.07261398,0.49362656,0.0,0.0,-0.10822608,0.0024415539,0.0,0.0,0.49280104,0.6102755,0.0,0.0,1.1802207,0.752509,0.0,0.0,0.82199895,0.55179363,0.0,719.6337,755.89746,813.5165,801.02563,829.6337,0.0,0.0,0.1258544921875,0.0426025390625,0.99371337890625,3.75335693359375,-7.259979248046875,-2.654266357421875,19559853.47985348,117963516.48351648,53028058.60805861,85.85955,1.0,2.0,1.0,1.0,2.0,50.0,/muse/elements/blink,0 days 00:00:00
2023-11-16 11:24:43.705,0.0,-0.07261398,0.49362656,0.0,0.0,-0.10822608,0.0024415539,0.0,0.0,0.49280104,0.6102755,0.0,0.0,1.1802207,0.752509,0.0,0.0,0.82199895,0.55179363,0.0,714.7985,767.1795,800.6227,808.2784,825.6044,0.0,0.0,0.1258544921875,0.0426025390625,0.99371337890625,3.75335693359375,-7.259979248046875,-2.654266357421875,19559853.47985348,117963516.48351648,53028058.60805861,85.85955,1.0,2.0,1.0,1.0,2.0,50.0,/muse/elements/blink,0 days 00:00:00.001000
2023-11-16 11:24:43.705,0.0,-0.07261398,0.49362656,0.0,0.0,-0.10822608,0.0024415539,0.0,0.0,0.49280104,0.6102755,0.0,0.0,1.1802207,0.752509,0.0,0.0,0.82199895,0.55179363,0.0,687.8022,734.5421,785.31134,810.696,1090.3297,0.0,0.0,0.1258544921875,0.0426025390625,0.99371337890625,3.75335693359375,-7.259979248046875,-2.654266357421875,19559853.47985348,117963516.48351648,53028058.60805861,85.85955,1.0,2.0,1.0,1.0,2.0,50.0,/muse/elements/blink,0 days 00:00:00
2023-11-16 11:24:43.706,0.0,-0.07261398,0.49362656,0.0,0.0,-0.10822608,0.0024415539,0.0,0.0,0.49280104,0.6102755,0.0,0.0,1.1802207,0.752509,0.0,0.0,0.82199895,0.55179363,0.0,692.23444,726.08057,797.8022,823.5897,1119.7435,0.0,0.0,0.1258544921875,0.0426025390625,0.99371337890625,3.75335693359375,-7.259979248046875,-2.654266357421875,19559853.47985348,117963516.48351648,53028058.60805861,85.85955,1.0,2.0,1.0,1.0,2.0,50.0,/muse/elements/blink,0 days 00:00:00.001000
2023-11-16 11:24:43.706,0.0,-0.07261398,0.49362656,0.0,0.0,-0.10822608,0.0024415539,0.0,0.0,0.49280104,0.6102755,0.0,0.0,1.1802207,0.752509,0.0,0.0,0.82199895,0.55179363,0.0,725.6777,738.1685,796.5934,810.696,826.0073,0.0,0.0,0.1258544921875,0.0426025390625,0.99371337890625,3.75335693359375,-7.259979248046875,-2.654266357421875,19559853.47985348,117963516.48351648,53028058.60805861,85.85955,1.0,2.0,1.0,1.0,2.0,50.0,/muse/elements/blink,0 days 00:00:00
2023-11-16 11:24:43.774,0.0,-0.07261398,0.49362656,0.0,0.0,-0.10822608,0.0024415539,0.0,0.0,0.49280104,0.6102755,0.0,0.0,1.1802207,0.752509,0.0,0.0,0.82199895,0.55179363,0.0,725.2747,727.28937,784.5055,804.65204,732.1245,0.0,0.0,0.1258544921875,0.0426025390625,0.99371337890625,3.75335693359375,-7.259979248046875,-2.654266357421875,19699267.3992674,117953846.15384614,52994212.45421245,85.61628,1.0,2.0,1.0,1.0,2.0,50.0,/muse/elements/blink,0 days 00:00:00.068000
2023-11-16 11:24:43.775,0.0,-0.07261398,0.49362656,0.0,0.0,-0.10822608,0.0024415539,0.0,0.0,0.49280104,0.6102755,0.0,0.0,1.1802207,0.752509,0.0,0.0,0.82199895,0.55179363,0.0,738.1685,731.7216,792.1612,786.52014,759.12085,0.0,0.0,0.1258544921875,0.0426025390625,0.99371337890625,3.75335693359375,-7.259979248046875,-2.654266357421875,19699267.3992674,117953846.15384614,52994212.45421245,85.61628,1.0,2.0,1.0,1.0,2.0,50.0,/muse/elements/blink,0 days 00:00:00.001000
2023-11-16 11:24:43.777,0.0,-0.07261398,0.49362656,0.0,0.0,-0.10822608,0.0024415539,0.0,0.0,0.49280104,0.6102755,0.0,0.0,1.1802207,0.752509,0.0,0.0,0.82199895,0.55179363,0.0,760.32965,743.8095,796.5934,786.1172,761.9414,0.0,0.0,0.1258544921875,0.0426025390625,0.99371337890625,3.75335693359375,-7.259979248046875,-2.654266357421875,19699267.3992674,117953846.15384614,52994212.45421245,85.61628,1.0,2.0,1.0,1.0,2.0,50.0,/muse/elements/blink,0 days 00:00:00.002000
2023-11-16 11:24:43.778,0.0,-0.07261398,0.49362656,0.0,0.0,-0.10822608,0.0024415539,0.0,0.0,0.49280104,0.6102755,0.0,0.0,1.1802207,0.752509,0.0,0.0,0.82199895,0.55179363,0.0,775.2381,730.5128,794.17584,796.1905,770.80585,0.0,0.0,0.1258544921875,0.0426025390625,0.99371337890625,3.75335693359375,-7.259979248046875,-2.654266357421875,19699267.3992674,117953846.15384614,52994212.45421245,85.61628,1.0,2.0,1.0,1.0,2.0,50.0,/muse/elements/blink,0 days 00:00:00.001000
2023-11-16 11:24:43.778,0.0,-0.07261398,0.49362656,0.0,0.0,-0.10822608,0.0024415539,0.0,0.0,0.49280104,0.6102755,0.0,0.0,1.1802207,0.752509,0.0,0.0,0.82199895,0.55179363,0.0,793.36993,701.50183,786.52014,793.7729,899.7436,0.0,0.0,0.1258544921875,0.0426025390625,0.99371337890625,3.75335693359375,-7.259979248046875,-2.654266357421875,19699267.3992674,117953846.15384614,52994212.45421245,85.61628,1.0,2.0,1.0,1.0,2.0,50.0,/muse/elements/blink,0 days 00:00:00
2023-11-16 11:24:43.779,0.0,-0.07261398,0.49362656,0.0,0.0,-0.10822608,0.0024415539,0.0,0.0,0.49280104,0.6102755,0.0,0.0,1.1802207,0.752509,0.0,0.0,0.82199895,0.55179363,0.0,770.0,721.6484,792.5641,801.4286,960.18317,0.0,0.0,0.1258544921875,0.0426025390625,0.99371337890625,3.75335693359375,-7.259979248046875,-2.654266357421875,19699267.3992674,117953846.15384614,52994212.45421245,85.61628,1.0,2.0,1.0,1.0,2.0,50.0,/muse/elements/blink,0 days 00:00:00.001000
2023-11-16 11:24:43.779,0.0,-0.07261398,0.49362656,0.0,0.0,-0.10822608,0.0024415539,0.0,0.0,0.49280104,0.6102755,0.0,0.0,1.1802207,0.752509,0.0,0.0,0.82199895,0.55179363,0.0,757.1062,748.6447,790.9524,783.2967,907.3993,0.0,0.0,0.1258544921875,0.0426025390625,0.99371337890625,3.75335693359375,-7.259979248046875,-2.654266357421875,19699267.3992674,117953846.15384614,52994212.45421245,85.61628,1.0,2.0,1.0,1.0,2.0,50.0,/muse/elements/blink,0 days 00:00:00
2023-11-16 11:24:43.779,0.0,-0.07261398,0.49362656,0.0,0.0,-0.10822608,0.0024415539,0.0,0.0,0.49280104,0.6102755,0.0,0.0,1.1802207,0.752509,0.0,0.0,0.82199895,0.55179363,0.0,762.3443,741.79486,788.93774,768.7912,793.7729,0.0,0.0,0.1258544921875,0.0426025390625,0.99371337890625,3.75335693359375,-7.259979248046875,-2.654266357421875,19699267.3992674,117953846.15384614,52994212.45421245,85.61628,1.0,2.0,1.0,1.0,2.0,50.0,/muse/elements/blink,0 days 00:00:00
2023-11-16 11:24:43.780,0.0,-0.07261398,0.49362656,0.0,0.0,-0.10822608,0.0024415539,0.0,0.0,0.49280104,0.6102755,0.0,0.0,1.1802207,0.752509,0.0,0.0,0.82199895,0.55179363,0.0,763.5531,724.0659,786.52014,801.4286,924.7253,0.0,0.0,0.1258544921875,0.0426025390625,0.99371337890625,3.75335693359375,-7.259979248046875,-2.654266357421875,19699267.3992674,117953846.15384614,52994212.45421245,85.61628,1.0,2.0,1.0,1.0,2.0,50.0,/muse/elements/blink,0 days 00:00:00.001000
2023-11-16 11:24:43.780,0.0,-0.07261398,0.49362656,0.0,0.0,-0.10822608,0.0024415539,0.0,0.0,0.49280104,0.6102755,0.0,0.0,1.1802207,0.752509,0.0,0.0,0.82199895,0.55179363,0.0,786.1172,723.2601,783.2967,846.55676,1078.6447,0.0,0.0,0.1258544921875,0.0426025390625,0.99371337890625,3.75335693359375,-7.259979248046875,-2.654266357421875,19699267.3992674,117953846.15384614,52994212.45421245,85.61628,1.0,2.0,1.0,1.0,2.0,50.0,/muse/elements/blink,0 days 00:00:00
2023-11-16 11:24:43.780,0.0,-0.07261398,0.49362656,0.0,0.0,-0.10822608,0.0024415539,0.0,0.0,0.49280104,0.6102755,0.0,0.0,1.1802207,0.752509,0.0,0.0,0.82199895,0.55179363,0.0,781.685,739.7802,795.38464,848.1685,850.58606,0.0,0.0,0.1258544921875,0.0426025390625,0.99371337890625,3.75335693359375,-7.259979248046875,-2.654266357421875,19699267.3992674,117953846.15384614,52994212.45421245,85.61628,1.0,2.0,1.0,1.0,2.0,50.0,/muse/elements/blink,0 days 00:00:00
2023-11-16 11:24:43.781,0.0,-0.07261398,0.49362656,0.0,0.0,-0.10822608,0.0024415539,0.0,0.0,0.49280104,0.6102755,0.0,0.0,1.1802207,0.752509,0.0,0.0,0.82199895,0.55179363,0.0,784.5055,712.7839,795.78754,833.663,730.10986,0.0,0.0,0.1258544921875,0.0426025390625,0.99371337890625,3.75335693359375,-7.259979248046875,-2.654266357421875,19699267.3992674,117953846.15384614,52994212.45421245,85.61628,1.0,2.0,1.0,1.0,2.0,50.0,/muse/elements/blink,0 days 00:00:00.001000
2023-11-16 11:24:43.806,0.0,-0.07261398,0.49362656,0.0,0.0,-0.10822608,0.0024415539,0.0,0.0,0.49280104,0.6102755,0.0,0.0,1.1802207,0.752509,0.0,0.0,0.82199895,0.55179363,0.0,836.4835,654.35895,800.6227,842.1245,833.663,0.0,0.0,0.14202880859375,0.050048828125,0.9896240234375,4.47113037109375,-10.048828125,-5.959014892578125,19699267.3992674,117953846.15384614,52994212.45421245,85.61628,1.0,2.0,1.0,1.0,2.0,50.0,/muse/elements/blink,0 days 00:00:00.025000
2023-11-16 11:24:43.806,0.0,-0.07261398,0.49362656,0.0,0.0,-0.10822608,0.0024415539,0.0,0.0,0.49280104,0.6102755,0.0,0.0,1.1802207,0.752509,0.0,0.0,0.82199895,0.55179363,0.0,834.87177,720.84247,800.6227,836.8865,858.24176,0.0,0.0,0.14202880859375,0.050048828125,0.9896240234375,4.47113037109375,-10.048828125,-5.959014892578125,19699267.3992674,117953846.15384614,52994212.45421245,85.61628,1.0,2.0,1.0,1.0,2.0,50.0,/muse/elements/blink,0 days 00:00:00
2023-11-16 11:24:43.807,0.0,-0.07261398,0.49362656,0.0,0.0,-0.10822608,0.0024415539,0.0,0.0,0.49280104,0.6102755,0.0,0.0,1.1802207,0.752509,0.0,0.0,0.82199895,0.55179363,0.0,822.381,789.7436,794.17584,830.4396,898.1319,0.0,0.0,0.14202880859375,0.050048828125,0.9896240234375,4.47113037109375,-10.048828125,-5.959014892578125,19699267.3992674,117953846.15384614,52994212.45421245,85.61628,1.0,2.0,1.0,1.0,2.0,50.0,/muse/elements/blink,0 days 00:00:00.001000
2023-11-16 11:24:43.807,0.0,-0.07261398,0.49362656,0.0,0.0,-0.10822608,0.0024415539,0.0,0.0,0.49280104,0.6102755,0.0,0.0,1.1802207,0.752509,0.0,0.0,0.82199895,0.55179363,0.0,854.61536,775.64105,789.7436,844.5421,990.80585,0.0,0.0,0.14202880859375,0.050048828125,0.9896240234375,4.47113037109375,-10.048828125,-5.959014892578125,19699267.3992674,117953846.15384614,52994212.45421245,85.61628,1.0,2.0,1.0,1.0,2.0,50.0,/muse/elements/blink,0 days 00:00:00
2023-11-16 11:24:43.808,0.0,-0.07261398,0.49362656,0.0,0.0,-0.10822608,0.0024415539,0.0,0.0,0.49280104,0.6102755,0.0,0.0,1.1802207,0.752509,0.0,0.0,0.82199895,0.55179363,0.0,850.18317,763.5531,788.5348,883.6264,985.16486,0.0,0.0,0.14202880859375,0.050048828125,0.9896240234375,4.47113037109375,-10.048828125,-5.959014892578125,19699267.3992674,117953846.15384614,52994212.45421245,85.61628,1.0,2.0,1.0,1.0,2.0,50.0,/muse/elements/blink,0 days 00:00:00.001000
2023-11-16 11:24:43.808,0.0,-0.07261398,0.49362656,0.0,0.0,-0.10822608,0.0024415539,0.0,0.0,0.49280104,0.6102755,0.0,0.0,1.1802207,0.752509,0.0,0.0,0.82199895,0.55179363,0.0,849.3773,757.1062,794.9817,904.17584,1010.54944,0.0,0.0,0.14202880859375,0.050048828125,0.9896240234375,4.47113037109375,-10.048828125,-5.959014892578125,19699267.3992674,117953846.15384614,52994212.45421245,85.61628,1.0,2.0,1.0,1.0,2.0,50.0,/muse/elements/blink,0 days 00:00:00
2023-11-16 11:24:43.808,0.0,-0.07261398,0.49362656,0.0,0.0,-0.10822608,0.0024415539,0.0,0.0,0.49280104,0.6102755,0.0,0.0,1.1802207,0.752509,0.0,0.0,0.82199895,0.55179363,0.0,867.1062,749.45056,792.96704,892.8938,983.1502,0.0,0.0,0.14202880859375,0.050048828125,0.9896240234375,4.47113037109375,-10.048828125,-5.959014892578125,19699267.3992674,117953846.15384614,52994212.45421245,85.61628,1.0,2.0,1.0,1.0,2.0,50.0,/muse/elements/blink,0 days 00:00:00
2023-11-16 11:24:43.809,0.0,-0.07261398,0.49362656,0.0,0.0,-0.10822608,0.0024415539,0.0,0.0,0.49280104,0.6102755,0.0,0.0,1.1802207,0.752509,0.0,0.0,0.82199895,0.55179363,0.0,853.8095,737.76556,777.6557,893.2967,930.3663,0.0,0.0,0.14202880859375,0.050048828125,0.9896240234375,4.47113037109375,-10.048828125,-5.959014892578125,19699267.3992674,117953846.15384614,52994212.45421245,85.61628,1.0,2.0,1.0,1.0,2.0,50.0,/muse/elements/blink,0 days 00:00:00.001000
2023-11-16 11:24:43.809,0.0,-0.07261398,0.49362656,0.0,0.0,-0.10822608,0.0024415539,0.0,0.0,0.49280104,0.6102755,0.0,0.0,1.1802207,0.752509,0.0,0.0,0.82199895,0.55179363,0.0,848.97437,731.7216,771.6117,923.91943,1129.011,0.0,0.0,0.14202880859375,0.050048828125,0.9896240234375,4.47113037109375,-10.048828125,-5.959014892578125,19699267.3992674,117953846.15384614,52994212.45421245,85.61628,1.0,2.0,1.0,1.0,2.0,50.0,/muse/elements/blink,0 days 00:00:00
2023-11-16 11:24:43.809,0.0,-0.07261398,0.49362656,0.0,0.0,-0.10822608,0.0024415539,0.0,0.0,0.49280104,0.6102755,0.0,0.0,1.1802207,0.752509,0.0,0.0,0.82199895,0.55179363,0.0,853.00366,739.7802,784.10254,914.65204,1078.6447,0.0,0.0,0.14202880859375,0.050048828125,0.9896240234375,4.47113037109375,-10.048828125,-5.959014892578125,19699267.3992674,117953846.15384614,52994212.45421245,85.61628,1.0,2.0,1.0,1.0,2.0,50.0,/muse/elements/blink,0 days 00:00:00
2023-11-16 11:24:43.810,0.0,-0.07261398,0.49362656,0.0,0.0,-0.10822608,0.0024415539,0.0,0.0,0.49280104,0.6102755,0.0,0.0,1.1802207,0.752509,0.0,0.0,0.82199895,0.55179363,0.0,879.19415,733.3333,783.2967,898.93774,787.326,0.0,0.0,0.14202880859375,0.050048828125,0.9896240234375,4.47113037109375,-10.048828125,-5.959014892578125,19699267.3992674,117953846.15384614,52994212.45421245,85.61628,1.0,2.0,1.0,1.0,2.0,50.0,/muse/elements/blink,0 days 00:00:00.001000
2023-11-16 11:24:43.810,0.0,-0.07261398,0.49362656,0.0,0.0,-0.10822608,0.0024415539,0.0,0.0,0.49280104,0.6102755,0.0,0.0,1.1802207,0.752509,0.0,0.0,0.82199895,0.55179363,0.0,908.20514,725.2747,777.6557,917.0696,821.1722,0.0,0.0,0.14202880859375,0.050048828125,0.9896240234375,4.47113037109375,-10.048828125,-5.959014892578125,19699267.3992674,117953846.15384614,52994212.45421245,85.61628,1.0,2.0,1.0,1.0,2.0,50.0,/muse/elements/blink,0 days 00:00:00
2023-11-16 11:24:43.842,0.0,-0.07261398,0.49362656,0.0,0.0,-0.10822608,0.0024415539,0.0,0.0,0.49280104,0.6102755,0.0,0.0,1.1802207,0.752509,0.0,0.0,0.82199895,0.55179363,0.0,923.5165,729.304,777.25275,905.78754,1053.663,0.0,0.0,0.1624755859375,0.0540771484375,0.99420166015625,2.67669677734375,-7.843170166015625,-4.88983154296875,19499413.91941392,117915970.6959707,52895091.57509157,85.387245,1.0,2.0,1.0,1.0,2.0,50.0,/muse/elements/blink,0 days 00:00:00.032000
2023-11-16 11:24:43.842,0.0,-0.07261398,0.49362656,0.0,0.0,-0.10822608,0.0024415539,0.0,0.0,0.49280104,0.6102755,0.0,0.0,1.1802207,0.752509,0.0,0.0,0.82199895,0.55179363,0.0,930.7692,731.7216,786.1172,888.46155,848.97437,0.0,0.0,0.1624755859375,0.0540771484375,0.99420166015625,2.67669677734375,-7.843170166015625,-4.88983154296875,19499413.91941392,117915970.6959707,52895091.57509157,85.387245,1.0,2.0,1.0,1.0,2.0,50.0,/muse/elements/blink,0 days 00:00:00
2023-11-16 11:24:43.843,0.0,-0.07261398,0.49362656,0.0,0.0,-0.10822608,0.0024415539,0.0,0.0,0.49280104,0.6102755,0.0,0.0,1.1802207,0.752509,0.0,0.0,0.82199895,0.55179363,0.0,946.4835,753.47986,797.8022,898.93774,679.34064,0.0,0.0,0.1624755859375,0.0540771484375,0.99420166015625,2.67669677734375,-7.843170166015625,-4.88983154296875,19499413.91941392,117915970.6959707,52895091.57509157,85.387245,1.0,2.0,1.0,1.0,2.0,50.0,/muse/elements/blink,0 days 00:00:00.001000
2023-11-16 11:24:43.844,0.0,-0.07261398,0.49362656,0.0,0.0,-0.10822608,0.0024415539,0.0,0.0,0.49280104,0.6102755,0.0,0.0,1.1802207,0.752509,0.0,0.0,0.82199895,0.55179363,0.0,946.4835,753.47986,797.8022,898.93774,679.34064,0.0,0.0,0.1624755859375,0.0540771484375,0.99420166015625,2.67669677734375,-7.843170166015625,-4.88983154296875,19499413.91941392,117915970.6959707,52895091.57509157,85.387245,1.0,2.0,1.0,1.0,2.0,50.0,/muse/elements/blink,0 days 00:00:00.001000
2023-11-16 11:24:43.843,0.0,-0.07261398,0.49362656,0.0,0.0,-0.10822608,0.0024415539,0.0,0.0,0.49280104,0.6102755,0.0,0.0,1.1802207,0.752509,0.0,0.0,0.82199895,0.55179363,0.0,983.1502,749.85345,786.9231,920.696,737.76556,0.0,0.0,0.1624755859375,0.0540771484375,0.99420166015625,2.67669677734375,-7.843170166015625,-4.88983154296875,19499413.91941392,117915970.6959707,52895091.57509157,85.387245,1.0,2.0,1.0,1.0,2.0,50.0,/muse/elements/blink,-1 days +23:59:59.999000
2023-11-16 11:24:43.844,0.0,-0.07261398,0.49362656,0.0,0.0,-0.10822608,0.0024415539,0.0,0.0,0.49280104,0.6102755,0.0,0.0,1.1802207,0.752509,0.0,0.0,0.82199895,0.55179363,0.0,982.3443,743.4066,778.86444,940.84247,763.95605,0.0,0.0,0.1624755859375,0.0540771484375,0.99420166015625,2.67669677734375,-7.843170166015625,-4.88983154296875,19499413.91941392,117915970.6959707,52895091.57509157,85.387245,1.0,2.0,1.0,1.0,2.0,50.0,/muse/elements/blink,0 days 00:00:00.001000
2023-11-16 11:24:43.845,0.0,-0.07261398,0.49362656,0.0,0.0,-0.10822608,0.0024415539,0.0,0.0,0.49280104,0.6102755,0.0,0.0,1.1802207,0.752509,0.0,0.0,0.82199895,0.55179363,0.0,967.03296,757.50916,772.8205,916.26373,770.40295,0.0,0.0,0.1624755859375,0.0540771484375,0.99420166015625,2.67669677734375,-7.843170166015625,-4.88983154296875,19499413.91941392,117915970.6959707,52895091.57509157,85.387245,1.0,2.0,1.0,1.0,2.0,50.0,/muse/elements/blink,0 days 00:00:00.001000
2023-11-16 11:24:43.845,0.0,-0.07261398,0.49362656,0.0,0.0,-0.10822608,0.0024415539,0.0,0.0,0.49280104,0.6102755,0.0,0.0,1.1802207,0.752509,0.0,0.0,0.82199895,0.55179363,0.0,982.74725,763.1502,770.40295,884.83514,759.92676,0.0,0.0,0.1624755859375,0.0540771484375,0.99420166015625,2.67669677734375,-7.843170166015625,-4.88983154296875,19499413.91941392,117915970.6959707,52895091.57509157,85.387245,1.0,2.0,1.0,1.0,2.0,50.0,/muse/elements/blink,0 days 00:00:00
2023-11-16 11:24:43.845,0.0,-0.07261398,0.49362656,0.0,0.0,-0.10822608,0.0024415539,0.0,0.0,0.49280104,0.6102755,0.0,0.0,1.1802207,0.752509,0.0,0.0,0.82199895,0.55179363,0.0,999.67035,752.27106,772.8205,909.81683,942.8571,0.0,0.0,0.1624755859375,0.0540771484375,0.99420166015625,2.67669677734375,-7.843170166015625,-4.88983154296875,19499413.91941392,117915970.6959707,52895091.57509157,85.387245,1.0,2.0,1.0,1.0,2.0,50.0,/muse/elements/blink,0 days 00:00:00
2023-11-16 11:24:43.845,0.0,-0.07261398,0.49362656,0.0,0.0,-0.10822608,0.0024415539,0.0,0.0,0.49280104,0.6102755,0.0,0.0,1.1802207,0.752509,0.0,0.0,0.82199895,0.55179363,0.0,981.13556,736.9597,791.3553,929.9634,1093.5531,0.0,0.0,0.1624755859375,0.0540771484375,0.99420166015625,2.67669677734375,-7.843170166015625,-4.88983154296875,19499413.91941392,117915970.6959707,52895091.57509157,85.387245,1.0,2.0,1.0,1.0,2.0,50.0,/muse/elements/blink,0 days 00:00:00
2023-11-16 11:24:43.846,0.0,-0.07261398,0.49362656,0.0,0.0,-0.10822608,0.0024415539,0.0,0.0,0.49280104,0.6102755,0.0,0.0,1.1802207,0.752509,0.0,0.0,0.82199895,0.55179363,0.0,990.40295,757.9121,802.23444,904.57874,858.6447,0.0,0.0,0.1624755859375,0.0540771484375,0.99420166015625,2.67669677734375,-7.843170166015625,-4.88983154296875,19499413.91941392,117915970.6959707,52895091.57509157,85.387245,1.0,2.0,1.0,1.0,2.0,50.0,/muse/elements/blink,0 days 00:00:00.001000
2023-11-16 11:24:43.846,0.0,-0.07261398,0.49362656,0.0,0.0,-0.10822608,0.0024415539,0.0,0.0,0.49280104,0.6102755,0.0,0.0,1.1802207,0.752509,0.0,0.0,0.82199895,0.55179363,0.0,1003.2967,750.2564,792.5641,902.96704,799.41394,0.0,0.0,0.1624755859375,0.0540771484375,0.99420166015625,2.67669677734375,-7.843170166015625,-4.88983154296875,19499413.91941392,117915970.6959707,52895091.57509157,85.387245,1.0,2.0,1.0,1.0,2.0,50.0,/muse/elements/blink,0 days 00:00:00
2023-11-16 11:24:43.846,0.0,-0.07261398,0.49362656,0.0,0.0,-0.10822608,0.0024415539,0.0,0.0,0.49280104,0.6102755,0.0,0.0,1.1802207,0.752509,0.0,0.0,0.82199895,0.55179363,0.0,1064.9451,721.2454,787.72894,941.2454,970.2564,0.0,0.0,0.1624755859375,0.0540771484375,0.99420166015625,2.67669677734375,-7.843170166015625,-4.88983154296875,19499413.91941392,117915970.6959707,52895091.57509157,85.387245,1.0,2.0,1.0,1.0,2.0,50.0,/muse/elements/blink,0 days 00:00:00
2023-11-16 11:24:43.871,0.0,-0.07261398,0.49362656,0.0,0.0,-0.10822608,0.0024415539,0.0,0.0,0.49280104,0.6102755,0.0,0.0,1.1802207,0.752509,0.0,0.0,0.82199895,0.55179363,0.0,1087.5092,745.42126,790.14655,940.84247,890.4762,0.0,0.0,0.165771484375,0.03759765625,1.0050048828125,0.2691650390625,-3.102874755859375,-1.831817626953125,19499413.91941392,117915970.6959707,52895091.57509157,85.387245,1.0,2.0,1.0,1.0,2.0,50.0,/muse/elements/blink,0 days 00:00:00.025000
2023-11-16 11:24:43.871,0.0,-0.07261398,0.49362656,0.0,0.0,-0.10822608,0.0024415539,0.0,0.0,0.49280104,0.6102755,0.0,0.0,1.1802207,0.752509,0.0,0.0,0.82199895,0.55179363,0.0,1051.2454,765.16486,785.31134,911.4286,776.04395,0.0,0.0,0.165771484375,0.03759765625,1.0050048828125,0.2691650390625,-3.102874755859375,-1.831817626953125,19499413.91941392,117915970.6959707,52895091.57509157,85.387245,1.0,2.0,1.0,1.0,2.0,50.0,/muse/elements/blink,0 days 00:00:00
2023-11-16 11:24:43.872,0.0,-0.07261398,0.49362656,0.0,0.0,-0.10822608,0.0024415539,0.0,0.0,0.49280104,0.6102755,0.0,0.0,1.1802207,0.752509,0.0,0.0,0.82199895,0.55179363,0.0,1074.6154,755.4945,787.72894,913.8461,786.1172,0.0,0.0,0.165771484375,0.03759765625,1.0050048828125,0.2691650390625,-3.102874755859375,-1.831817626953125,19499413.91941392,117915970.6959707,52895091.57509157,85.387245,1.0,2.0,1.0,1.0,2.0,50.0,/muse/elements/blink,0 days 00:00:00.001000
2023-11-16 11:24:43.872,0.0,-0.07261398,0.49362656,0.0,0.0,-0.10822608,0.0024415539,0.0,0.0,0.49280104,0.6102755,0.0,0.0,1.1802207,0.752509,0.0,0.0,0.82199895,0.55179363,0.0,1100.0,736.1539,788.93774,914.65204,874.35895,0.0,0.0,0.165771484375,0.03759765625,1.0050048828125,0.2691650390625,-3.102874755859375,-1.831817626953125,19499413.91941392,117915970.6959707,52895091.57509157,85.387245,1.0,2.0,1.0,1.0,2.0,50.0,/muse/elements/blink,0 days 00:00:00
2023-11-16 11:24:43.872,0.0,-0.07261398,0.49362656,0.0,0.0,-0.10822608,0.0024415539,0.0,0.0,0.49280104,0.6102755,0.0,0.0,1.1802207,0.752509,0.0,0.0,0.82199895,0.55179363,0.0,1098.7913,741.39197,782.0879,906.99634,880.40295,0.0,0.0,0.165771484375,0.03759765625,1.0050048828125,0.2691650390625,-3.102874755859375,-1.831817626953125,19499413.91941392,117915970.6959707,52895091.57509157,85.387245,1.0,2.0,1.0,1.0,2.0,50.0,/muse/elements/blink,0 days 00:00:00
2023-11-16 11:24:43.873,0.0,-0.07261398,0.49362656,0.0,0.0,-0.10822608,0.0024415539,0.0,0.0,0.49280104,0.6102755,0.0,0.0,1.1802207,0.752509,0.0,0.0,0.82199895,0.55179363,0.0,1091.5385,750.2564,784.5055,921.50183,815.5311,0.0,0.0,0.165771484375,0.03759765625,1.0050048828125,0.2691650390625,-3.102874755859375,-1.831817626953125,19499413.91941392,117915970.6959707,52895091.57509157,85.387245,1.0,2.0,1.0,1.0,2.0,50.0,/muse/elements/blink,0 days 00:00:00.001000
2023-11-16 11:24:43.873,0.0,-0.07261398,0.49362656,0.0,0.0,-0.10822608,0.0024415539,0.0,0.0,0.49280104,0.6102755,0.0,0.0,1.1802207,0.752509,0.0,0.0,0.82199895,0.55179363,0.0,1094.359,747.8388,777.6557,934.7985,809.0842,0.0,0.0,0.165771484375,0.03759765625,1.0050048828125,0.2691650390625,-3.102874755859375,-1.831817626953125,19499413.91941392,117915970.6959707,52895091.57509157,85.387245,1.0,2.0,1.0,1.0,2.0,50.0,/muse/elements/blink,0 days 00:00:00
2023-11-16 11:24:43.873,0.0,-0.07261398,0.49362656,0.0,0.0,-0.10822608,0.0024415539,0.0,0.0,0.49280104,0.6102755,0.0,0.0,1.1802207,0.752509,0.0,0.0,0.82199895,0.55179363,0.0,1124.9817,755.89746,770.40295,941.6484,1010.54944,0.0,0.0,0.165771484375,0.03759765625,1.0050048828125,0.2691650390625,-3.102874755859375,-1.831817626953125,19499413.91941392,117915970.6959707,52895091.57509157,85.387245,1.0,2.0,1.0,1.0,2.0,50.0,/muse/elements/blink,0 days 00:00:00
2023-11-16 11:24:43.873,0.0,-0.07261398,0.49362656,0.0,0.0,-0.10822608,0.0024415539,0.0,0.0,0.49280104,0.6102755,0.0,0.0,1.1802207,0.752509,0.0,0.0,0.82199895,0.55179363,0.0,1111.2821,765.56775,782.8938,915.4579,1009.7436,0.0,0.0,0.165771484375,0.03759765625,1.0050048828125,0.2691650390625,-3.102874755859375,-1.831817626953125,19499413.91941392,117915970.6959707,52895091.57509157,85.387245,1.0,2.0,1.0,1.0,2.0,50.0,/muse/elements/blink,0 days 00:00:00
2023-11-16 11:24:43.874,0.0,-0.07261398,0.49362656,0.0,0.0,-0.10822608,0.0024415539,0.0,0.0,0.49280104,0.6102755,0.0,0.0,1.1802207,0.752509,0.0,0.0,0.82199895,0.55179363,0.0,1100.0,747.4359,789.7436,886.4469,777.25275,0.0,0.0,0.165771484375,0.03759765625,1.0050048828125,0.2691650390625,-3.102874755859375,-1.831817626953125,19499413.91941392,117915970.6959707,52895091.57509157,85.387245,1.0,2.0,1.0,1.0,2.0,50.0,/muse/elements/blink,0 days 00:00:00.001000
2023-11-16 11:24:43.874,0.0,-0.07261398,0.49362656,0.0,0.0,-0.10822608,0.0024415539,0.0,0.0,0.49280104,0.6102755,0.0,0.0,1.1802207,0.752509,0.0,0.0,0.82199895,0.55179363,0.0,1077.8389,731.31866,784.10254,904.57874,788.1319,0.0,0.0,0.165771484375,0.03759765625,1.0050048828125,0.2691650390625,-3.102874755859375,-1.831817626953125,19499413.91941392,117915970.6959707,52895091.57509157,85.387245,1.0,2.0,1.0,1.0,2.0,50.0,/muse/elements/blink,0 days 00:00:00
2023-11-16 11:24:43.874,0.0,-0.07261398,0.49362656,0.0,0.0,-0.10822608,0.0024415539,0.0,0.0,0.49280104,0.6102755,0.0,0.0,1.1802207,0.752509,0.0,0.0,0.82199895,0.55179363,0.0,1052.8572,748.24176,780.07324,899.34064,811.9048,0.0,0.0,0.165771484375,0.03759765625,1.0050048828125,0.2691650390625,-3.102874755859375,-1.831817626953125,19499413.91941392,117915970.6959707,52895091.57509157,85.387245,1.0,2.0,1.0,1.0,2.0,50.0,/muse/elements/blink,0 days 00:00:00
2023-11-16 11:24:43.943,0.0,-0.07261398,0.49362656,0.0,0.0,-0.10822608,0.0024415539,0.0,0.0,0.49280104,0.6102755,0.0,0.0,1.1802207,0.752509,0.0,0.0,0.82199895,0.55179363,0.0,1011.75824,759.92676,790.9524,873.5531,741.79486,0.0,0.0,0.15838623046875,0.037353515625,0.98724365234375,-0.306549072265625,-0.0897216796875,-2.40753173828125,19604175.824175823,117904688.64468864,52878974.35897436,85.171616,1.0,2.0,1.0,1.0,2.0,50.0,/muse/elements/blink,0 days 00:00:00.069000
2023-11-16 11:24:43.943,0.0,-0.07261398,0.49362656,0.0,0.0,-0.10822608,0.0024415539,0.0,0.0,0.49280104,0.6102755,0.0,0.0,1.1802207,0.752509,0.0,0.0,0.82199895,0.55179363,0.0,978.315,757.1062,792.96704,842.9304,749.45056,0.0,0.0,0.15838623046875,0.037353515625,0.98724365234375,-0.306549072265625,-0.0897216796875,-2.40753173828125,19604175.824175823,117904688.64468864,52878974.35897436,85.171616,1.0,2.0,1.0,1.0,2.0,50.0,/muse/elements/blink,0 days 00:00:00
2023-11-16 11:24:43.944,0.0,-0.07261398,0.49362656,0.0,0.0,-0.10822608,0.0024415539,0.0,0.0,0.49280104,0.6102755,0.0,0.0,1.1802207,0.752509,0.0,0.0,0.82199895,0.55179363,0.0,994.43225,748.6447,773.22345,823.9927,820.3663,0.0,0.0,0.15838623046875,0.037353515625,0.98724365234375,-0.306549072265625,-0.0897216796875,-2.40753173828125,19604175.824175823,117904688.64468864,52878974.35897436,85.171616,1.0,2.0,1.0,1.0,2.0,50.0,/muse/elements/blink,0 days 00:00:00.001000
2023-11-16 11:24:43.944,0.0,-0.07261398,0.49362656,0.0,0.0,-0.10822608,0.0024415539,0.0,0.0,0.49280104,0.6102755,0.0,0.0,1.1802207,0.752509,0.0,0.0,0.82199895,0.55179363,0.0,975.09155,734.94507,767.1795,842.1245,815.9341,0.0,0.0,0.15838623046875,0.037353515625,0.98724365234375,-0.306549072265625,-0.0897216796875,-2.40753173828125,19604175.824175823,117904688.64468864,52878974.35897436,85.171616,1.0,2.0,1.0,1.0,2.0,50.0,/muse/elements/blink,0 days 00:00:00
2023-11-16 11:24:43.945,0.0,-0.07261398,0.49362656,0.0,0.0,-0.10822608,0.0024415539,0.0,0.0,0.49280104,0.6102755,0.0,0.0,1.1802207,0.752509,0.0,0.0,0.82199895,0.55179363,0.0,959.7802,668.46155,777.6557,837.28937,713.1868,0.0,0.0,0.15838623046875,0.037353515625,0.98724365234375,-0.306549072265625,-0.0897216796875,-2.40753173828125,19604175.824175823,117904688.64468864,52878974.35897436,85.171616,1.0,2.0,1.0,1.0,2.0,50.0,/muse/elements/blink,0 days 00:00:00.001000
2023-11-16 11:24:43.945,0.0,-0.07261398,0.49362656,0.0,0.0,-0.10822608,0.0024415539,0.0,0.0,0.49280104,0.6102755,0.0,0.0,1.1802207,0.752509,0.0,0.0,0.82199895,0.55179363,0.0,966.2271,584.2491,774.0293,811.50183,701.0989,0.0,0.0,0.15838623046875,0.037353515625,0.98724365234375,-0.306549072265625,-0.0897216796875,-2.40753173828125,19604175.824175823,117904688.64468864,52878974.35897436,85.171616,1.0,2.0,1.0,1.0,2.0,50.0,/muse/elements/blink,0 days 00:00:00
2023-11-16 11:24:43.947,0.0,-0.07261398,0.49362656,0.0,0.0,-0.10822608,0.0024415539,0.0,0.0,0.49280104,0.6102755,0.0,0.0,1.1802207,0.752509,0.0,0.0,0.82199895,0.55179363,0.0,954.94507,529.85345,776.04395,846.55676,889.67035,0.0,0.0,0.15838623046875,0.037353515625,0.98724365234375,-0.306549072265625,-0.0897216796875,-2.40753173828125,19604175.824175823,117904688.64468864,52878974.35897436,85.171616,1.0,2.0,1.0,1.0,2.0,50.0,/muse/elements/blink,0 days 00:00:00.002000
2023-11-16 11:24:43.948,0.0,-0.07261398,0.49362656,0.0,0.0,-0.10822608,0.0024415539,0.0,0.0,0.49280104,0.6102755,0.0,0.0,1.1802207,0.752509,0.0,0.0,0.82199895,0.55179363,0.0,935.2015,538.315,796.1905,837.28937,960.58606,0.0,0.0,0.15838623046875,0.037353515625,0.98724365234375,-0.306549072265625,-0.0897216796875,-2.40753173828125,19604175.824175823,117904688.64468864,52878974.35897436,85.171616,1.0,2.0,1.0,1.0,2.0,50.0,/muse/elements/blink,0 days 00:00:00.001000
2023-11-16 11:24:43.948,0.0,-0.07261398,0.49362656,0.0,0.0,-0.10822608,0.0024415539,0.0,0.0,0.49280104,0.6102755,0.0,0.0,1.1802207,0.752509,0.0,0.0,0.82199895,0.55179363,0.0,927.1429,572.1612,798.20514,783.2967,701.9048,0.0,0.0,0.15838623046875,0.037353515625,0.98724365234375,-0.306549072265625,-0.0897216796875,-2.40753173828125,19604175.824175823,117904688.64468864,52878974.35897436,85.171616,1.0,2.0,1.0,1.0,2.0,50.0,/muse/elements/blink,0 days 00:00:00
2023-11-16 11:24:43.949,0.0,-0.07261398,0.49362656,0.0,0.0,-0.10822608,0.0024415539,0.0,0.0,0.49280104,0.6102755,0.0,0.0,1.1802207,0.752509,0.0,0.0,0.82199895,0.55179363,0.0,903.36993,612.0513,788.93774,788.1319,682.96704,0.0,0.0,0.15838623046875,0.037353515625,0.98724365234375,-0.306549072265625,-0.0897216796875,-2.40753173828125,19604175.824175823,117904688.64468864,52878974.35897436,85.171616,1.0,2.0,1.0,1.0,2.0,50.0,/muse/elements/blink,0 days 00:00:00.001000
2023-11-16 11:24:43.949,0.0,-0.07261398,0.49362656,0.0,0.0,-0.10822608,0.0024415539,0.0,0.0,0.49280104,0.6102755,0.0,0.0,1.1802207,0.752509,0.0,0.0,0.82199895,0.55179363,0.0,884.43225,633.4066,791.3553,784.5055,789.34064,0.0,0.0,0.15838623046875,0.037353515625,0.98724365234375,-0.306549072265625,-0.0897216796875,-2.40753173828125,19604175.824175823,117904688.64468864,52878974.35897436,85.171616,1.0,2.0,1.0,1.0,2.0,50.0,/muse/elements/blink,0 days 00:00:00
2023-11-16 11:24:43.949,0.0,-0.07261398,0.49362656,0.0,0.0,-0.10822608,0.0024415539,0.0,0.0,0.49280104,0.6102755,0.0,0.0,1.1802207,0.752509,0.0,0.0,0.82199895,0.55179363,0.0,886.04395,624.1392,785.31134,789.34064,700.293,0.0,0.0,0.15838623046875,0.037353515625,0.98724365234375,-0.306549072265625,-0.0897216796875,-2.40753173828125,19604175.824175823,117904688.64468864,52878974.35897436,85.171616,1.0,2.0,1.0,1.0,2.0,50.0,/muse/elements/blink,0 days 00:00:00
2023-11-16 11:24:43.983,0.0,-0.07261398,0.49362656,0.0,0.0,-0.10822608,0.0024415539,0.0,0.0,0.49280104,0.6102755,0.0,0.0,1.1802207,0.752509,0.0,0.0,0.82199895,0.55179363,0.0,895.31134,664.0293,775.2381,803.8461,648.315,0.0,0.0,0.15838623046875,0.037353515625,0.98724365234375,-0.306549072265625,-0.0897216796875,-2.40753173828125,19604175.824175823,117904688.64468864,52878974.35897436,85.171616,1.0,2.0,1.0,1.0,2.0,50.0,/muse/elements/blink,0 days 00:00:00.034000
2023-11-16 11:24:43.984,0.0,-0.07261398,0.49362656,0.0,0.0,-0.10822608,0.0024415539,0.0,0.0,0.49280104,0.6102755,0.0,0.0,1.1802207,0.752509,0.0,0.0,0.82199895,0.55179363,0.0,882.4176,711.1722,781.28204,798.60803,708.3516,0.0,0.0,0.15838623046875,0.037353515625,0.98724365234375,-0.306549072265625,-0.0897216796875,-2.40753173828125,19604175.824175823,117904688.64468864,52878974.35897436,85.171616,1.0,2.0,1.0,1.0,2.0,50.0,/muse/elements/blink,0 days 00:00:00.001000
2023-11-16 11:24:43.984,0.0,-0.07261398,0.49362656,0.0,0.0,-0.10822608,0.0024415539,0.0,0.0,0.49280104,0.6102755,0.0,0.0,1.1802207,0.752509,0.0,0.0,0.82199895,0.55179363,0.0,865.09155,718.8278,784.90845,796.5934,771.2088,0.0,0.0,0.15838623046875,0.037353515625,0.98724365234375,-0.306549072265625,-0.0897216796875,-2.40753173828125,19604175.824175823,117904688.64468864,52878974.35897436,85.171616,1.0,2.0,1.0,1.0,2.0,50.0,/muse/elements/blink,0 days 00:00:00
2023-11-16 11:24:43.984,0.0,-0.07261398,0.49362656,0.0,0.0,-0.10822608,0.0024415539,0.0,0.0,0.49280104,0.6102755,0.0,0.0,1.1802207,0.752509,0.0,0.0,0.82199895,0.55179363,0.0,878.7912,718.8278,783.69965,815.5311,817.9487,0.0,0.0,0.15838623046875,0.037353515625,0.98724365234375,-0.306549072265625,-0.0897216796875,-2.40753173828125,19604175.824175823,117904688.64468864,52878974.35897436,85.171616,1.0,2.0,1.0,1.0,2.0,50.0,/muse/elements/blink,0 days 00:00:00
2023-11-16 11:24:43.985,0.0,-0.07261398,0.49362656,0.0,0.0,-0.10822608,0.0024415539,0.0,0.0,0.49280104,0.6102755,0.0,0.0,1.1802207,0.752509,0.0,0.0,0.82199895,0.55179363,0.0,881.6117,724.0659,780.87915,817.5458,800.2198,0.0,0.0,0.15838623046875,0.037353515625,0.98724365234375,-0.306549072265625,-0.0897216796875,-2.40753173828125,19604175.824175823,117904688.64468864,52878974.35897436,85.171616,1.0,2.0,1.0,1.0,2.0,50.0,/muse/elements/blink,0 days 00:00:00.001000
2023-11-16 11:24:43.985,0.0,-0.07261398,0.49362656,0.0,0.0,-0.10822608,0.0024415539,0.0,0.0,0.49280104,0.6102755,0.0,0.0,1.1802207,0.752509,0.0,0.0,0.82199895,0.55179363,0.0,865.89746,721.6484,785.31134,805.05493,817.1429,0.0,0.0,0.15838623046875,0.037353515625,0.98724365234375,-0.306549072265625,-0.0897216796875,-2.40753173828125,19604175.824175823,117904688.64468864,52878974.35897436,85.171616,1.0,2.0,1.0,1.0,2.0,50.0,/muse/elements/blink,0 days 00:00:00
2023-11-16 11:24:43.985,0.0,-0.07261398,0.49362656,0.0,0.0,-0.10822608,0.0024415539,0.0,0.0,0.49280104,0.6102755,0.0,0.0,1.1802207,0.752509,0.0,0.0,0.82199895,0.55179363,0.0,862.27106,710.3663,792.5641,810.696,944.87177,0.0,0.0,0.15838623046875,0.037353515625,0.98724365234375,-0.306549072265625,-0.0897216796875,-2.40753173828125,19604175.824175823,117904688.64468864,52878974.35897436,85.171616,1.0,2.0,1.0,1.0,2.0,50.0,/muse/elements/blink,0 days 00:00:00
2023-11-16 11:24:43.985,0.0,-0.07261398,0.49362656,0.0,0.0,-0.10822608,0.0024415539,0.0,0.0,0.49280104,0.6102755,0.0,0.0,1.1802207,0.752509,0.0,0.0,0.82199895,0.55179363,0.0,860.65936,735.7509,781.685,801.02563,871.13556,0.0,0.0,0.15838623046875,0.037353515625,0.98724365234375,-0.306549072265625,-0.0897216796875,-2.40753173828125,19604175.824175823,117904688.64468864,52878974.35897436,85.171616,1.0,2.0,1.0,1.0,2.0,50.0,/muse/elements/blink,0 days 00:00:00
2023-11-16 11:24:43.985,0.0,-0.07261398,0.49362656,0.0,0.0,-0.10822608,0.0024415539,0.0,0.0,0.49280104,0.6102755,0.0,0.0,1.1802207,0.752509,0.0,0.0,0.82199895,0.55179363,0.0,859.0476,760.7326,779.2674,776.8498,722.0513,0.0,0.0,0.15838623046875,0.037353515625,0.98724365234375,-0.306549072265625,-0.0897216796875,-2.40753173828125,19604175.824175823,117904688.64468864,52878974.35897436,85.171616,1.0,2.0,1.0,1.0,2.0,50.0,/muse/elements/blink,0 days 00:00:00
2023-11-16 11:24:43.986,0.0,-0.07261398,0.49362656,0.0,0.0,-0.10822608,0.0024415539,0.0,0.0,0.49280104,0.6102755,0.0,0.0,1.1802207,0.752509,0.0,0.0,0.82199895,0.55179363,0.0,850.989,747.8388,778.46155,780.4762,691.8315,0.0,0.0,0.15838623046875,0.037353515625,0.98724365234375,-0.306549072265625,-0.0897216796875,-2.40753173828125,19604175.824175823,117904688.64468864,52878974.35897436,85.171616,1.0,2.0,1.0,1.0,2.0,50.0,/muse/elements/blink,0 days 00:00:00.001000
2023-11-16 11:24:43.986,0.0,-0.07261398,0.49362656,0.0,0.0,-0.10822608,0.0024415539,0.0,0.0,0.49280104,0.6102755,0.0,0.0,1.1802207,0.752509,0.0,0.0,0.82199895,0.55179363,0.0,849.3773,724.4689,767.5824,817.1429,984.35895,0.0,0.0,0.15838623046875,0.037353515625,0.98724365234375,-0.306549072265625,-0.0897216796875,-2.40753173828125,19604175.824175823,117904688.64468864,52878974.35897436,85.171616,1.0,2.0,1.0,1.0,2.0,50.0,/muse/elements/blink,0 days 00:00:00
2023-11-16 11:24:43.986,0.0,-0.07261398,0.49362656,0.0,0.0,-0.10822608,0.0024415539,0.0,0.0,0.49280104,0.6102755,0.0,0.0,1.1802207,0.752509,0.0,0.0,0.82199895,0.55179363,0.0,851.79486,729.707,778.46155,797.3993,1074.2124,0.0,0.0,0.15838623046875,0.037353515625,0.98724365234375,-0.306549072265625,-0.0897216796875,-2.40753173828125,19604175.824175823,117904688.64468864,52878974.35897436,85.171616,1.0,2.0,1.0,1.0,2.0,50.0,/muse/elements/blink,0 days 00:00:00
2023-11-16 11:24:44.053,0.0,-0.07261398,0.49362656,0.0,0.0,-0.10822608,0.0024415539,0.0,0.0,0.49280104,0.6102755,0.0,0.0,1.1802207,0.752509,0.0,0.0,0.82199895,0.55179363,0.0,837.28937,760.32965,784.90845,765.16486,749.85345,0.0,0.0,0.1514892578125,0.03564453125,0.99957275390625,0.85235595703125,0.059814453125,-1.33087158203125,19745201.465201464,117877289.37728935,52873333.33333333,84.9686,1.0,2.0,1.0,1.0,2.0,50.0,/muse/elements/blink,0 days 00:00:00.067000
2023-11-16 11:24:44.054,0.0,-0.07261398,0.49362656,0.0,0.0,-0.10822608,0.0024415539,0.0,0.0,0.49280104,0.6102755,0.0,0.0,1.1802207,0.752509,0.0,0.0,0.82199895,0.55179363,0.0,862.27106,772.4176,776.8498,800.6227,643.47986,0.0,0.0,0.1514892578125,0.03564453125,0.99957275390625,0.85235595703125,0.059814453125,-1.33087158203125,19745201.465201464,117877289.37728935,52873333.33333333,84.9686,1.0,2.0,1.0,1.0,2.0,50.0,/muse/elements/blink,0 days 00:00:00.001000
2023-11-16 11:24:44.054,0.0,-0.07261398,0.49362656,0.0,0.0,-0.10822608,0.0024415539,0.0,0.0,0.49280104,0.6102755,0.0,0.0,1.1802207,0.752509,0.0,0.0,0.82199895,0.55179363,0.0,885.64105,778.0586,778.86444,817.9487,698.2784,0.0,0.0,0.1514892578125,0.03564453125,0.99957275390625,0.85235595703125,0.059814453125,-1.33087158203125,19745201.465201464,117877289.37728935,52873333.33333333,84.9686,1.0,2.0,1.0,1.0,2.0,50.0,/muse/elements/blink,0 days 00:00:00
2023-11-16 11:24:44.054,0.0,-0.07261398,0.49362656,0.0,0.0,-0.10822608,0.0024415539,0.0,0.0,0.49280104,0.6102755,0.0,0.0,1.1802207,0.752509,0.0,0.0,0.82199895,0.55179363,0.0,880.80585,796.1905,775.64105,802.23444,674.5055,0.0,0.0,0.1514892578125,0.03564453125,0.99957275390625,0.85235595703125,0.059814453125,-1.33087158203125,19745201.465201464,117877289.37728935,52873333.33333333,84.9686,1.0,2.0,1.0,1.0,2.0,50.0,/muse/elements/blink,0 days 00:00:00
2023-11-16 11:24:44.055,0.0,-0.07261398,0.49362656,0.0,0.0,-0.10822608,0.0024415539,0.0,0.0,0.49280104,0.6102755,0.0,0.0,1.1802207,0.752509,0.0,0.0,0.82199895,0.55179363,0.0,858.6447,781.28204,761.9414,781.28204,655.9707,0.0,0.0,0.1514892578125,0.03564453125,0.99957275390625,0.85235595703125,0.059814453125,-1.33087158203125,19745201.465201464,117877289.37728935,52873333.33333333,84.9686,1.0,2.0,1.0,1.0,2.0,50.0,/muse/elements/blink,0 days 00:00:00.001000
2023-11-16 11:24:44.055,0.0,-0.07261398,0.49362656,0.0,0.0,-0.10822608,0.0024415539,0.0,0.0,0.49280104,0.6102755,0.0,0.0,1.1802207,0.752509,0.0,0.0,0.82199895,0.55179363,0.0,840.10986,756.7033,767.5824,763.95605,743.8095,0.0,0.0,0.1514892578125,0.03564453125,0.99957275390625,0.85235595703125,0.059814453125,-1.33087158203125,19745201.465201464,117877289.37728935,52873333.33333333,84.9686,1.0,2.0,1.0,1.0,2.0,50.0,/muse/elements/blink,0 days 00:00:00
2023-11-16 11:24:44.056,0.0,-0.07261398,0.49362656,0.0,0.0,-0.10822608,0.0024415539,0.0,0.0,0.49280104,0.6102755,0.0,0.0,1.1802207,0.752509,0.0,0.0,0.82199895,0.55179363,0.0,842.1245,772.4176,782.0879,777.6557,730.9158,0.0,0.0,0.1514892578125,0.03564453125,0.99957275390625,0.85235595703125,0.059814453125,-1.33087158203125,19745201.465201464,117877289.37728935,52873333.33333333,84.9686,1.0,2.0,1.0,1.0,2.0,50.0,/muse/elements/blink,0 days 00:00:00.001000
2023-11-16 11:24:44.056,0.0,-0.07261398,0.49362656,0.0,0.0,-0.10822608,0.0024415539,0.0,0.0,0.49280104,0.6102755,0.0,0.0,1.1802207,0.752509,0.0,0.0,0.82199895,0.55179363,0.0,836.8865,765.56775,784.90845,772.01465,701.0989,0.0,0.0,0.1514892578125,0.03564453125,0.99957275390625,0.85235595703125,0.059814453125,-1.33087158203125,19745201.465201464,117877289.37728935,52873333.33333333,84.9686,1.0,2.0,1.0,1.0,2.0,50.0,/muse/elements/blink,0 days 00:00:00
2023-11-16 11:24:44.058,0.0,-0.07261398,0.49362656,0.0,0.0,-0.10822608,0.0024415539,0.0,0.0,0.49280104,0.6102755,0.0,0.0,1.1802207,0.752509,0.0,0.0,0.82199895,0.55179363,0.0,832.0513,739.7802,776.04395,740.18317,716.0073,0.0,0.0,0.1514892578125,0.03564453125,0.99957275390625,0.85235595703125,0.059814453125,-1.33087158203125,19745201.465201464,117877289.37728935,52873333.33333333,84.9686,1.0,2.0,1.0,1.0,2.0,50.0,/muse/elements/blink,0 days 00:00:00.002000
2023-11-16 11:24:44.058,0.0,-0.07261398,0.49362656,0.0,0.0,-0.10822608,0.0024415539,0.0,0.0,0.49280104,0.6102755,0.0,0.0,1.1802207,0.752509,0.0,0.0,0.82199895,0.55179363,0.0,848.5714,737.76556,779.67035,765.56775,827.619,0.0,0.0,0.1514892578125,0.03564453125,0.99957275390625,0.85235595703125,0.059814453125,-1.33087158203125,19745201.465201464,117877289.37728935,52873333.33333333,84.9686,1.0,2.0,1.0,1.0,2.0,50.0,/muse/elements/blink,0 days 00:00:00
2023-11-16 11:24:44.058,0.0,-0.07261398,0.49362656,0.0,0.0,-0.10822608,0.0024415539,0.0,0.0,0.49280104,0.6102755,0.0,0.0,1.1802207,0.752509,0.0,0.0,0.82199895,0.55179363,0.0,869.92676,768.7912,776.8498,816.337,976.7033,0.0,0.0,0.1514892578125,0.03564453125,0.99957275390625,0.85235595703125,0.059814453125,-1.33087158203125,19745201.465201464,117877289.37728935,52873333.33333333,84.9686,1.0,2.0,1.0,1.0,2.0,50.0,/muse/elements/blink,0 days 00:00:00
2023-11-16 11:24:44.059,0.0,-0.07261398,0.49362656,0.0,0.0,-0.10822608,0.0024415539,0.0,0.0,0.49280104,0.6102755,0.0,0.0,1.1802207,0.752509,0.0,0.0,0.82199895,0.55179363,0.0,877.1795,791.75824,778.0586,788.5348,758.71796,0.0,0.0,0.1514892578125,0.03564453125,0.99957275390625,0.85235595703125,0.059814453125,-1.33087158203125,19745201.465201464,117877289.37728935,52873333.33333333,84.9686,1.0,2.0,1.0,1.0,2.0,50.0,/muse/elements/blink,0 days 00:00:00.001000
2023-11-16 11:24:44.085,0.0,-0.07261398,0.49362656,0.0,0.0,-0.10822608,0.0024415539,0.0,0.0,0.49280104,0.6102755,0.0,0.0,1.1802207,0.752509,0.0,0.0,0.82199895,0.55179363,0.0,898.93774,791.3553,787.72894,738.1685,655.16486,0.0,0.0,0.1405029296875,0.02532958984375,0.99688720703125,1.45050048828125,-0.979461669921875,0.097198486328125,19745201.465201464,117877289.37728935,52873333.33333333,84.9686,1.0,2.0,1.0,1.0,2.0,50.0,/muse/elements/blink,0 days 00:00:00.026000
2023-11-16 11:24:44.085,0.0,-0.07261398,0.49362656,0.0,0.0,-0.10822608,0.0024415539,0.0,0.0,0.49280104,0.6102755,0.0,0.0,1.1802207,0.752509,0.0,0.0,0.82199895,0.55179363,0.0,893.69965,782.8938,780.07324,738.97437,863.47986,0.0,0.0,0.1405029296875,0.02532958984375,0.99688720703125,1.45050048828125,-0.979461669921875,0.097198486328125,19745201.465201464,117877289.37728935,52873333.33333333,84.9686,1.0,2.0,1.0,1.0,2.0,50.0,/muse/elements/blink,0 days 00:00:00
2023-11-16 11:24:44.086,0.0,-0.07261398,0.49362656,0.0,0.0,-0.10822608,0.0024415539,0.0,0.0,0.49280104,0.6102755,0.0,0.0,1.1802207,0.752509,0.0,0.0,0.82199895,0.55179363,0.0,885.2381,778.0586,777.6557,774.43225,810.293,0.0,0.0,0.1405029296875,0.02532958984375,0.99688720703125,1.45050048828125,-0.979461669921875,0.097198486328125,19745201.465201464,117877289.37728935,52873333.33333333,84.9686,1.0,2.0,1.0,1.0,2.0,50.0,/muse/elements/blink,0 days 00:00:00.001000
2023-11-16 11:24:44.086,0.0,-0.07261398,0.49362656,0.0,0.0,-0.10822608,0.0024415539,0.0,0.0,0.49280104,0.6102755,0.0,0.0,1.1802207,0.752509,0.0,0.0,0.82199895,0.55179363,0.0,882.8205,779.67035,776.4469,784.5055,623.73627,0.0,0.0,0.1405029296875,0.02532958984375,0.99688720703125,1.45050048828125,-0.979461669921875,0.097198486328125,19745201.465201464,117877289.37728935,52873333.33333333,84.9686,1.0,2.0,1.0,1.0,2.0,50.0,/muse/elements/blink,0 days 00:00:00
2023-11-16 11:24:44.086,0.0,-0.07261398,0.49362656,0.0,0.0,-0.10822608,0.0024415539,0.0,0.0,0.49280104,0.6102755,0.0,0.0,1.1802207,0.752509,0.0,0.0,0.82199895,0.55179363,0.0,868.315,781.685,774.43225,750.65936,751.4652,0.0,0.0,0.1405029296875,0.02532958984375,0.99688720703125,1.45050048828125,-0.979461669921875,0.097198486328125,19745201.465201464,117877289.37728935,52873333.33333333,84.9686,1.0,2.0,1.0,1.0,2.0,50.0,/muse/elements/blink,0 days 00:00:00
2023-11-16 11:24:44.087,0.0,-0.07261398,0.49362656,0.0,0.0,-0.10822608,0.0024415539,0.0,0.0,0.49280104,0.6102755,0.0,0.0,1.1802207,0.752509,0.0,0.0,0.82199895,0.55179363,0.0,861.8681,784.5055,766.77655,767.98535,1077.033,0.0,0.0,0.1405029296875,0.02532958984375,0.99688720703125,1.45050048828125,-0.979461669921875,0.097198486328125,19745201.465201464,117877289.37728935,52873333.33333333,84.9686,1.0,2.0,1.0,1.0,2.0,50.0,/muse/elements/blink,0 days 00:00:00.001000
2023-11-16 11:24:44.087,0.0,-0.07261398,0.49362656,0.0,0.0,-0.10822608,0.0024415539,0.0,0.0,0.49280104,0.6102755,0.0,0.0,1.1802207,0.752509,0.0,0.0,0.82199895,0.55179363,0.0,869.12085,770.40295,772.01465,772.8205,969.85345,0.0,0.0,0.1405029296875,0.02532958984375,0.99688720703125,1.45050048828125,-0.979461669921875,0.097198486328125,19745201.465201464,117877289.37728935,52873333.33333333,84.9686,1.0,2.0,1.0,1.0,2.0,50.0,/muse/elements/blink,0 days 00:00:00
2023-11-16 11:24:44.087,0.0,-0.07261398,0.49362656,0.0,0.0,-0.10822608,0.0024415539,0.0,0.0,0.49280104,0.6102755,0.0,0.0,1.1802207,0.752509,0.0,0.0,0.82199895,0.55179363,0.0,874.35895,769.59705,779.67035,765.56775,716.8132,0.0,0.0,0.1405029296875,0.02532958984375,0.99688720703125,1.45050048828125,-0.979461669921875,0.097198486328125,19745201.465201464,117877289.37728935,52873333.33333333,84.9686,1.0,2.0,1.0,1.0,2.0,50.0,/muse/elements/blink,0 days 00:00:00
2023-11-16 11:24:44.088,0.0,-0.07261398,0.49362656,0.0,0.0,-0.10822608,0.0024415539,0.0,0.0,0.49280104,0.6102755,0.0,0.0,1.1802207,0.752509,0.0,0.0,0.82199895,0.55179363,0.0,896.52014,782.0879,777.6557,778.46155,753.47986,0.0,0.0,0.1405029296875,0.02532958984375,0.99688720703125,1.45050048828125,-0.979461669921875,0.097198486328125,19745201.465201464,117877289.37728935,52873333.33333333,84.9686,1.0,2.0,1.0,1.0,2.0,50.0,/muse/elements/blink,0 days 00:00:00.001000
2023-11-16 11:24:44.088,0.0,-0.07261398,0.49362656,0.0,0.0,-0.10822608,0.0024415539,0.0,0.0,0.49280104,0.6102755,0.0,0.0,1.1802207,0.752509,0.0,0.0,0.82199895,0.55179363,0.0,907.3993,772.01465,788.1319,780.87915,906.5934,0.0,0.0,0.1405029296875,0.02532958984375,0.99688720703125,1.45050048828125,-0.979461669921875,0.097198486328125,19745201.465201464,117877289.37728935,52873333.33333333,84.9686,1.0,2.0,1.0,1.0,2.0,50.0,/muse/elements/blink,0 days 00:00:00
2023-11-16 11:24:44.088,0.0,-0.07261398,0.49362656,0.0,0.0,-0.10822608,0.0024415539,0.0,0.0,0.49280104,0.6102755,0.0,0.0,1.1802207,0.752509,0.0,0.0,0.82199895,0.55179363,0.0,873.95605,784.10254,783.2967,764.35895,773.22345,0.0,0.0,0.1405029296875,0.02532958984375,0.99688720703125,1.45050048828125,-0.979461669921875,0.097198486328125,19745201.465201464,117877289.37728935,52873333.33333333,84.9686,1.0,2.0,1.0,1.0,2.0,50.0,/muse/elements/blink,0 days 00:00:00
2023-11-16 11:24:44.089,0.0,-0.07261398,0.49362656,0.0,0.0,-0.10822608,0.0024415539,0.0,0.0,0.49280104,0.6102755,0.0,0.0,1.1802207,0.752509,0.0,0.0,0.82199895,0.55179363,0.0,881.2088,813.91943,772.8205,748.6447,689.011,0.0,0.0,0.1405029296875,0.02532958984375,0.99688720703125,1.45050048828125,-0.979461669921875,0.097198486328125,19745201.465201464,117877289.37728935,52873333.33333333,84.9686,1.0,2.0,1.0,1.0,2.0,50.0,/muse/elements/blink,0 days 00:00:00.001000
2023-11-16 11:24:44.120,0.0,-0.07261398,0.49362656,0.0,0.0,-0.10822608,0.0024415539,0.0,0.0,0.49280104,0.6102755,0.0,0.0,1.1802207,0.752509,0.0,0.0,0.82199895,0.55179363,0.0,898.93774,815.9341,782.8938,758.315,794.17584,0.0,0.0,0.13507080078125,0.02679443359375,0.9903564453125,2.79632568359375,-3.24493408203125,-1.039276123046875,19887838.827838827,117882930.4029304,52839487.179487176,84.777466,1.0,2.0,1.0,1.0,2.0,50.0,/muse/elements/blink,0 days 00:00:00.031000
2023-11-16 11:24:44.121,0.0,-0.07261398,0.49362656,0.0,0.0,-0.10822608,0.0024415539,0.0,0.0,0.49280104,0.6102755,0.0,0.0,1.1802207,0.752509,0.0,0.0,0.82199895,0.55179363,0.0,871.13556,799.011,776.04395,751.06226,821.978,0.0,0.0,0.13507080078125,0.02679443359375,0.9903564453125,2.79632568359375,-3.24493408203125,-1.039276123046875,19887838.827838827,117882930.4029304,52839487.179487176,84.777466,1.0,2.0,1.0,1.0,2.0,50.0,/muse/elements/blink,0 days 00:00:00.001000
2023-11-16 11:24:44.121,0.0,-0.07261398,0.49362656,0.0,0.0,-0.10822608,0.0024415539,0.0,0.0,0.49280104,0.6102755,0.0,0.0,1.1802207,0.752509,0.0,0.0,0.82199895,0.55179363,0.0,853.00366,780.07324,775.64105,737.76556,739.3773,0.0,0.0,0.13507080078125,0.02679443359375,0.9903564453125,2.79632568359375,-3.24493408203125,-1.039276123046875,19887838.827838827,117882930.4029304,52839487.179487176,84.777466,1.0,2.0,1.0,1.0,2.0,50.0,/muse/elements/blink,0 days 00:00:00
2023-11-16 11:24:44.121,0.0,-0.07261398,0.49362656,0.0,0.0,-0.10822608,0.0024415539,0.0,0.0,0.49280104,0.6102755,0.0,0.0,1.1802207,0.752509,0.0,0.0,0.82199895,0.55179363,0.0,868.71796,796.5934,776.4469,781.685,686.99634,0.0,0.0,0.13507080078125,0.02679443359375,0.9903564453125,2.79632568359375,-3.24493408203125,-1.039276123046875,19887838.827838827,117882930.4029304,52839487.179487176,84.777466,1.0,2.0,1.0,1.0,2.0,50.0,/muse/elements/blink,0 days 00:00:00
2023-11-16 11:24:44.122,0.0,-0.07261398,0.49362656,0.0,0.0,-0.10822608,0.0024415539,0.0,0.0,0.49280104,0.6102755,0.0,0.0,1.1802207,0.752509,0.0,0.0,0.82199895,0.55179363,0.0,882.01465,798.60803,763.95605,800.2198,669.67035,0.0,0.0,0.13507080078125,0.02679443359375,0.9903564453125,2.79632568359375,-3.24493408203125,-1.039276123046875,19887838.827838827,117882930.4029304,52839487.179487176,84.777466,1.0,2.0,1.0,1.0,2.0,50.0,/muse/elements/blink,0 days 00:00:00.001000
2023-11-16 11:24:44.122,0.0,-0.07261398,0.49362656,0.0,0.0,-0.10822608,0.0024415539,0.0,0.0,0.49280104,0.6102755,0.0,0.0,1.1802207,0.752509,0.0,0.0,0.82199895,0.55179363,0.0,869.12085,765.16486,768.3883,750.65936,725.6777,0.0,0.0,0.13507080078125,0.02679443359375,0.9903564453125,2.79632568359375,-3.24493408203125,-1.039276123046875,19887838.827838827,117882930.4029304,52839487.179487176,84.777466,1.0,2.0,1.0,1.0,2.0,50.0,/muse/elements/blink,0 days 00:00:00
2023-11-16 11:24:44.123,0.0,-0.07261398,0.49362656,0.0,0.0,-0.10822608,0.0024415539,0.0,0.0,0.49280104,0.6102755,0.0,0.0,1.1802207,0.752509,0.0,0.0,0.82199895,0.55179363,0.0,848.1685,778.0586,777.6557,726.8865,797.3993,0.0,0.0,0.13507080078125,0.02679443359375,0.9903564453125,2.79632568359375,-3.24493408203125,-1.039276123046875,19887838.827838827,117882930.4029304,52839487.179487176,84.777466,1.0,2.0,1.0,1.0,2.0,50.0,/muse/elements/blink,0 days 00:00:00.001000
2023-11-16 11:24:44.123,0.0,-0.07261398,0.49362656,0.0,0.0,-0.10822608,0.0024415539,0.0,0.0,0.49280104,0.6102755,0.0,0.0,1.1802207,0.752509,0.0,0.0,0.82199895,0.55179363,0.0,857.03296,805.05493,778.86444,730.5128,748.6447,0.0,0.0,0.13507080078125,0.02679443359375,0.9903564453125,2.79632568359375,-3.24493408203125,-1.039276123046875,19887838.827838827,117882930.4029304,52839487.179487176,84.777466,1.0,2.0,1.0,1.0,2.0,50.0,/muse/elements/blink,0 days 00:00:00
2023-11-16 11:24:44.124,0.0,-0.07261398,0.49362656,0.0,0.0,-0.10822608,0.0024415539,0.0,0.0,0.49280104,0.6102755,0.0,0.0,1.1802207,0.752509,0.0,0.0,0.82199895,0.55179363,0.0,859.85345,807.0696,776.4469,740.989,878.3883,0.0,0.0,0.13507080078125,0.02679443359375,0.9903564453125,2.79632568359375,-3.24493408203125,-1.039276123046875,19887838.827838827,117882930.4029304,52839487.179487176,84.777466,1.0,2.0,1.0,1.0,2.0,50.0,/muse/elements/blink,0 days 00:00:00.001000
2023-11-16 11:24:44.124,0.0,-0.07261398,0.49362656,0.0,0.0,-0.10822608,0.0024415539,0.0,0.0,0.49280104,0.6102755,0.0,0.0,1.1802207,0.752509,0.0,0.0,0.82199895,0.55179363,0.0,817.1429,803.44324,784.90845,745.82416,923.91943,0.0,0.0,0.13507080078125,0.02679443359375,0.9903564453125,2.79632568359375,-3.24493408203125,-1.039276123046875,19887838.827838827,117882930.4029304,52839487.179487176,84.777466,1.0,2.0,1.0,1.0,2.0,50.0,/muse/elements/blink,0 days 00:00:00
2023-11-16 11:24:44.126,0.0,-0.07261398,0.49362656,0.0,0.0,-0.10822608,0.0024415539,0.0,0.0,0.49280104,0.6102755,0.0,0.0,1.1802207,0.752509,0.0,0.0,0.82199895,0.55179363,0.0,814.3223,798.60803,798.60803,739.3773,708.7546,0.0,0.0,0.13507080078125,0.02679443359375,0.9903564453125,2.79632568359375,-3.24493408203125,-1.039276123046875,19887838.827838827,117882930.4029304,52839487.179487176,84.777466,1.0,2.0,1.0,1.0,2.0,50.0,/muse/elements/blink,0 days 00:00:00.002000
2023-11-16 11:24:44.126,0.0,-0.07261398,0.49362656,0.0,0.0,-0.10822608,0.0024415539,0.0,0.0,0.49280104,0.6102755,0.0,0.0,1.1802207,0.752509,0.0,0.0,0.82199895,0.55179363,0.0,831.6484,802.23444,792.5641,746.2271,692.23444,0.0,0.0,0.13507080078125,0.02679443359375,0.9903564453125,2.79632568359375,-3.24493408203125,-1.039276123046875,19887838.827838827,117882930.4029304,52839487.179487176,84.777466,1.0,2.0,1.0,1.0,2.0,50.0,/muse/elements/blink,0 days 00:00:00
