TimeStamp,Delta_TP9,Delta_AF7,Delta_AF8,Delta_TP10,Theta_TP9,Theta_AF7,Theta_AF8,Theta_TP10,Alpha_TP9,Alpha_AF7,Alpha_AF8,Alpha_TP10,Beta_TP9,Beta_AF7,Beta_AF8,Beta_TP10,Gamma_TP9,Gamma_AF7,Gamma_AF8,Gamma_TP10,RAW_TP9,RAW_AF7,RAW_AF8,RAW_TP10,AUX_RIGHT,Mellow,Concentration,Accelerometer_X,Accelerometer_Y,Accelerometer_Z,Gyro_X,Gyro_Y,Gyro_Z,PPG_Ambient,PPG_IR,PPG_Red,Heart_Rate,HeadBandOn,HSI_TP9,HSI_AF7,HSI_AF8,HSI_TP10,Battery,Elements,TimeDifference
2023-11-09 13:55:50.526,1.1127414,0.48942998,0.49300456,0.6455952,1.015767,0.47536498,-0.06675077,0.059430175,1.2291396,0.4206616,0.098393254,0.39835662,1.0311987,0.4762533,-0.031667598,0.7734131,0.80722123,0.08837218,0.018679753,0.78352773,755.09155,806.26373,811.9048,784.10254,759.92676,100.0,100.0,-0.01666259765625,0.0262451171875,1.00384521484375,4.299163818359375,-6.003875732421875,0.919647216796875,2042051.282051282,113870549.45054944,46959926.73992674,62.4788,1.0,1.0,1.0,1.0,1.0,20.0,,0 days 00:00:00.061000
2023-11-09 13:55:50.527,1.1127414,0.48942998,0.49300456,0.6455952,1.015767,0.47536498,-0.06675077,0.059430175,1.2291396,0.4206616,0.098393254,0.39835662,1.0311987,0.4762533,-0.031667598,0.7734131,0.80722123,0.08837218,0.018679753,0.78352773,766.3736,801.02563,816.7399,794.9817,793.36993,100.0,100.0,-0.01666259765625,0.0262451171875,1.00384521484375,4.299163818359375,-6.003875732421875,0.919647216796875,2042051.282051282,113870549.45054944,46959926.73992674,62.4788,1.0,1.0,1.0,1.0,1.0,20.0,,0 days 00:00:00.001000
2023-11-09 13:55:50.527,1.1127414,0.48942998,0.49300456,0.6455952,1.015767,0.47536498,-0.06675077,0.059430175,1.2291396,0.4206616,0.098393254,0.39835662,1.0311987,0.4762533,-0.031667598,0.7734131,0.80722123,0.08837218,0.018679753,0.78352773,771.6117,813.91943,812.71063,794.17584,923.5165,100.0,100.0,-0.01666259765625,0.0262451171875,1.00384521484375,4.299163818359375,-6.003875732421875,0.919647216796875,2042051.282051282,113870549.45054944,46959926.73992674,62.4788,1.0,1.0,1.0,1.0,1.0,20.0,,0 days 00:00:00
2023-11-09 13:55:50.528,1.1127414,0.48942998,0.49300456,0.6455952,1.015767,0.47536498,-0.06675077,0.059430175,1.2291396,0.4206616,0.098393254,0.39835662,1.0311987,0.4762533,-0.031667598,0.7734131,0.80722123,0.08837218,0.018679753,0.78352773,763.5531,812.71063,813.5165,798.20514,838.49817,100.0,100.0,-0.01666259765625,0.0262451171875,1.00384521484375,4.299163818359375,-6.003875732421875,0.919647216796875,2042051.282051282,113870549.45054944,46959926.73992674,62.4788,1.0,1.0,1.0,1.0,1.0,20.0,,0 days 00:00:00.001000
2023-11-09 13:55:50.528,1.1127414,0.48942998,0.49300456,0.6455952,1.015767,0.47536498,-0.06675077,0.059430175,1.2291396,0.4206616,0.098393254,0.39835662,1.0311987,0.4762533,-0.031667598,0.7734131,0.80722123,0.08837218,0.018679753,0.78352773,749.45056,804.2491,807.8755,806.26373,707.9487,100.0,100.0,-0.01666259765625,0.0262451171875,1.00384521484375,4.299163818359375,-6.003875732421875,0.919647216796875,2042051.282051282,113870549.45054944,46959926.73992674,62.4788,1.0,1.0,1.0,1.0,1.0,20.0,,0 days 00:00:00
2023-11-09 13:55:50.529,1.1127414,0.48942998,0.49300456,0.6455952,1.015767,0.47536498,-0.06675077,0.059430175,1.2291396,0.4206616,0.098393254,0.39835662,1.0311987,0.4762533,-0.031667598,0.7734131,0.80722123,0.08837218,0.018679753,0.78352773,751.8681,807.0696,803.0403,809.4872,874.7619,100.0,100.0,-0.01666259765625,0.0262451171875,1.00384521484375,4.299163818359375,-6.003875732421875,0.919647216796875,2042051.282051282,113870549.45054944,46959926.73992674,62.4788,1.0,1.0,1.0,1.0,1.0,20.0,,0 days 00:00:00.001000
2023-11-09 13:55:50.529,1.1127414,0.48942998,0.49300456,0.6455952,1.015767,0.47536498,-0.06675077,0.059430175,1.2291396,0.4206616,0.098393254,0.39835662,1.0311987,0.4762533,-0.031667598,0.7734131,0.80722123,0.08837218,0.018679753,0.78352773,774.0293,806.26373,804.65204,822.7839,1061.7216,100.0,100.0,-0.01666259765625,0.0262451171875,1.00384521484375,4.299163818359375,-6.003875732421875,0.919647216796875,2042051.282051282,113870549.45054944,46959926.73992674,62.4788,1.0,1.0,1.0,1.0,1.0,20.0,,0 days 00:00:00
2023-11-09 13:55:50.530,1.1127414,0.48942998,0.49300456,0.6455952,1.015767,0.47536498,-0.06675077,0.059430175,1.2291396,0.4206616,0.098393254,0.39835662,1.0311987,0.4762533,-0.031667598,0.7734131,0.80722123,0.08837218,0.018679753,0.78352773,784.90845,803.8461,804.2491,812.3077,848.1685,100.0,100.0,-0.01666259765625,0.0262451171875,1.00384521484375,4.299163818359375,-6.003875732421875,0.919647216796875,2042051.282051282,113870549.45054944,46959926.73992674,62.4788,1.0,1.0,1.0,1.0,1.0,20.0,,0 days 00:00:00.001000
2023-11-09 13:55:50.530,1.1127414,0.48942998,0.49300456,0.6455952,1.015767,0.47536498,-0.06675077,0.059430175,1.2291396,0.4206616,0.098393254,0.39835662,1.0311987,0.4762533,-0.031667598,0.7734131,0.80722123,0.08837218,0.018679753,0.78352773,788.5348,809.89014,805.8608,781.685,678.5348,100.0,100.0,-0.01666259765625,0.0262451171875,1.00384521484375,4.299163818359375,-6.003875732421875,0.919647216796875,2042051.282051282,113870549.45054944,46959926.73992674,62.4788,1.0,1.0,1.0,1.0,1.0,20.0,,0 days 00:00:00
2023-11-09 13:55:50.530,1.1127414,0.48942998,0.49300456,0.6455952,1.015767,0.47536498,-0.06675077,0.059430175,1.2291396,0.4206616,0.098393254,0.39835662,1.0311987,0.4762533,-0.031667598,0.7734131,0.80722123,0.08837218,0.018679753,0.78352773,793.7729,814.3223,802.6374,797.3993,713.5897,100.0,100.0,-0.01666259765625,0.0262451171875,1.00384521484375,4.299163818359375,-6.003875732421875,0.919647216796875,2042051.282051282,113870549.45054944,46959926.73992674,62.4788,1.0,1.0,1.0,1.0,1.0,20.0,,0 days 00:00:00
2023-11-09 13:55:50.531,1.1127414,0.48942998,0.49300456,0.6455952,1.015767,0.47536498,-0.06675077,0.059430175,1.2291396,0.4206616,0.098393254,0.39835662,1.0311987,0.4762533,-0.031667598,0.7734131,0.80722123,0.08837218,0.018679753,0.78352773,777.6557,807.8755,805.05493,796.1905,805.05493,100.0,100.0,-0.01666259765625,0.0262451171875,1.00384521484375,4.299163818359375,-6.003875732421875,0.919647216796875,2042051.282051282,113870549.45054944,46959926.73992674,62.4788,1.0,1.0,1.0,1.0,1.0,20.0,,0 days 00:00:00.001000
2023-11-09 13:55:50.531,1.1127414,0.48685053,0.4608357,0.6455952,1.015767,0.49775806,-0.064032316,0.059430175,1.2291396,0.39736587,0.09150629,0.39835662,1.0311987,0.48181778,-0.014512403,0.7734131,0.80722123,0.090605065,0.023042684,0.78352773,762.3443,807.0696,807.8755,770.0,716.8132,100.0,100.0,-0.01666259765625,0.0262451171875,1.00384521484375,4.299163818359375,-6.003875732421875,0.919647216796875,2042051.282051282,113870549.45054944,46959926.73992674,62.4788,1.0,1.0,1.0,1.0,1.0,20.0,,0 days 00:00:00
2023-11-09 13:55:50.558,1.1127414,0.48685053,0.4608357,0.6455952,1.015767,0.49775806,-0.064032316,0.059430175,1.2291396,0.39736587,0.09150629,0.39835662,1.0311987,0.48181778,-0.014512403,0.7734131,0.80722123,0.090605065,0.023042684,0.78352773,759.5238,813.1135,806.6667,785.31134,633.8095,100.0,100.0,-0.0111083984375,0.03314208984375,1.0111083984375,3.51409912109375,-4.4561767578125,0.800018310546875,2035604.3956043955,113748058.6080586,46957509.157509156,62.56782,1.0,1.0,1.0,1.0,1.0,20.0,,0 days 00:00:00.027000
2023-11-09 13:55:50.558,1.1127414,0.48685053,0.4608357,0.6455952,1.015767,0.49775806,-0.064032316,0.059430175,1.2291396,0.39736587,0.09150629,0.39835662,1.0311987,0.48181778,-0.014512403,0.7734131,0.80722123,0.090605065,0.023042684,0.78352773,762.3443,803.8461,807.0696,799.81683,712.381,100.0,100.0,-0.0111083984375,0.03314208984375,1.0111083984375,3.51409912109375,-4.4561767578125,0.800018310546875,2035604.3956043955,113748058.6080586,46957509.157509156,62.56782,1.0,1.0,1.0,1.0,1.0,20.0,,0 days 00:00:00
2023-11-09 13:55:50.559,1.1127414,0.48685053,0.4608357,0.6455952,1.015767,0.49775806,-0.064032316,0.059430175,1.2291396,0.39736587,0.09150629,0.39835662,1.0311987,0.48181778,-0.014512403,0.7734131,0.80722123,0.090605065,0.023042684,0.78352773,772.4176,791.75824,804.2491,799.41394,732.52747,100.0,100.0,-0.0111083984375,0.03314208984375,1.0111083984375,3.51409912109375,-4.4561767578125,0.800018310546875,2035604.3956043955,113748058.6080586,46957509.157509156,62.56782,1.0,1.0,1.0,1.0,1.0,20.0,,0 days 00:00:00.001000
2023-11-09 13:55:50.559,1.1127414,0.48685053,0.4608357,0.6455952,1.015767,0.49775806,-0.064032316,0.059430175,1.2291396,0.39736587,0.09150629,0.39835662,1.0311987,0.48181778,-0.014512403,0.7734131,0.80722123,0.090605065,0.023042684,0.78352773,769.59705,797.8022,801.4286,782.8938,688.20514,100.0,100.0,-0.0111083984375,0.03314208984375,1.0111083984375,3.51409912109375,-4.4561767578125,0.800018310546875,2035604.3956043955,113748058.6080586,46957509.157509156,62.56782,1.0,1.0,1.0,1.0,1.0,20.0,,0 days 00:00:00
2023-11-09 13:55:50.560,1.1127414,0.48685053,0.4608357,0.6455952,1.015767,0.49775806,-0.064032316,0.059430175,1.2291396,0.39736587,0.09150629,0.39835662,1.0311987,0.48181778,-0.014512403,0.7734131,0.80722123,0.090605065,0.023042684,0.78352773,752.674,805.05493,802.23444,775.64105,773.6264,100.0,100.0,-0.0111083984375,0.03314208984375,1.0111083984375,3.51409912109375,-4.4561767578125,0.800018310546875,2035604.3956043955,113748058.6080586,46957509.157509156,62.56782,1.0,1.0,1.0,1.0,1.0,20.0,,0 days 00:00:00.001000
2023-11-09 13:55:50.560,1.1127414,0.48685053,0.4608357,0.6455952,1.015767,0.49775806,-0.064032316,0.059430175,1.2291396,0.39736587,0.09150629,0.39835662,1.0311987,0.48181778,-0.014512403,0.7734131,0.80722123,0.090605065,0.023042684,0.78352773,760.7326,805.05493,807.8755,808.2784,853.8095,100.0,100.0,-0.0111083984375,0.03314208984375,1.0111083984375,3.51409912109375,-4.4561767578125,0.800018310546875,2035604.3956043955,113748058.6080586,46957509.157509156,62.56782,1.0,1.0,1.0,1.0,1.0,20.0,,0 days 00:00:00
2023-11-09 13:55:50.560,1.1127414,0.48685053,0.4608357,0.6455952,1.015767,0.49775806,-0.064032316,0.059430175,1.2291396,0.39736587,0.09150629,0.39835662,1.0311987,0.48181778,-0.014512403,0.7734131,0.80722123,0.090605065,0.023042684,0.78352773,786.52014,814.3223,802.6374,819.15753,836.08057,100.0,100.0,-0.0111083984375,0.03314208984375,1.0111083984375,3.51409912109375,-4.4561767578125,0.800018310546875,2035604.3956043955,113748058.6080586,46957509.157509156,62.56782,1.0,1.0,1.0,1.0,1.0,20.0,,0 days 00:00:00
2023-11-09 13:55:50.561,1.1127414,0.48685053,0.4608357,0.6455952,1.015767,0.49775806,-0.064032316,0.059430175,1.2291396,0.39736587,0.09150629,0.39835662,1.0311987,0.48181778,-0.014512403,0.7734131,0.80722123,0.090605065,0.023042684,0.78352773,780.07324,809.4872,797.8022,776.8498,776.8498,100.0,100.0,-0.0111083984375,0.03314208984375,1.0111083984375,3.51409912109375,-4.4561767578125,0.800018310546875,2035604.3956043955,113748058.6080586,46957509.157509156,62.56782,1.0,1.0,1.0,1.0,1.0,20.0,,0 days 00:00:00.001000
2023-11-09 13:55:50.561,1.1127414,0.48685053,0.4608357,0.6455952,1.015767,0.49775806,-0.064032316,0.059430175,1.2291396,0.39736587,0.09150629,0.39835662,1.0311987,0.48181778,-0.014512403,0.7734131,0.80722123,0.090605065,0.023042684,0.78352773,764.7619,800.6227,799.41394,769.59705,674.90845,100.0,100.0,-0.0111083984375,0.03314208984375,1.0111083984375,3.51409912109375,-4.4561767578125,0.800018310546875,2035604.3956043955,113748058.6080586,46957509.157509156,62.56782,1.0,1.0,1.0,1.0,1.0,20.0,,0 days 00:00:00
2023-11-09 13:55:50.561,1.1127414,0.48685053,0.4608357,0.6455952,1.015767,0.49775806,-0.064032316,0.059430175,1.2291396,0.39736587,0.09150629,0.39835662,1.0311987,0.48181778,-0.014512403,0.7734131,0.80722123,0.090605065,0.023042684,0.78352773,774.43225,804.65204,799.81683,791.75824,800.2198,100.0,100.0,-0.0111083984375,0.03314208984375,1.0111083984375,3.51409912109375,-4.4561767578125,0.800018310546875,2035604.3956043955,113748058.6080586,46957509.157509156,62.56782,1.0,1.0,1.0,1.0,1.0,20.0,,0 days 00:00:00
2023-11-09 13:55:50.561,1.1127414,0.48685053,0.4608357,0.6455952,1.015767,0.49775806,-0.064032316,0.059430175,1.2291396,0.39736587,0.09150629,0.39835662,1.0311987,0.48181778,-0.014512403,0.7734131,0.80722123,0.090605065,0.023042684,0.78352773,774.83514,806.26373,799.81683,803.8461,916.26373,100.0,100.0,-0.0111083984375,0.03314208984375,1.0111083984375,3.51409912109375,-4.4561767578125,0.800018310546875,2035604.3956043955,113748058.6080586,46957509.157509156,62.56782,1.0,1.0,1.0,1.0,1.0,20.0,,0 days 00:00:00
2023-11-09 13:55:50.562,1.1127414,0.48685053,0.4608357,0.6455952,1.015767,0.49775806,-0.064032316,0.059430175,1.2291396,0.39736587,0.09150629,0.39835662,1.0311987,0.48181778,-0.014512403,0.7734131,0.80722123,0.090605065,0.023042684,0.78352773,770.80585,801.4286,801.4286,796.5934,818.7546,100.0,100.0,-0.0111083984375,0.03314208984375,1.0111083984375,3.51409912109375,-4.4561767578125,0.800018310546875,2035604.3956043955,113748058.6080586,46957509.157509156,62.56782,1.0,1.0,1.0,1.0,1.0,20.0,,0 days 00:00:00.001000
2023-11-09 13:55:50.626,1.1127414,0.48685053,0.4608357,0.6455952,1.015767,0.49775806,-0.064032316,0.059430175,1.2291396,0.39736587,0.09150629,0.39835662,1.0311987,0.48181778,-0.014512403,0.7734131,0.80722123,0.090605065,0.023042684,0.78352773,777.25275,797.3993,803.8461,788.93774,784.5055,100.0,100.0,-0.01898193359375,0.027099609375,1.0087890625,2.773895263671875,-4.702911376953125,1.77947998046875,2035604.3956043955,113748058.6080586,46957509.157509156,62.56782,1.0,1.0,1.0,1.0,1.0,20.0,,0 days 00:00:00.064000
2023-11-09 13:55:50.627,1.1127414,0.48685053,0.4608357,0.6455952,1.015767,0.49775806,-0.064032316,0.059430175,1.2291396,0.39736587,0.09150629,0.39835662,1.0311987,0.48181778,-0.014512403,0.7734131,0.80722123,0.090605065,0.023042684,0.78352773,789.34064,804.2491,803.44324,811.50183,934.3956,100.0,100.0,-0.01898193359375,0.027099609375,1.0087890625,2.773895263671875,-4.702911376953125,1.77947998046875,2035604.3956043955,113748058.6080586,46957509.157509156,62.56782,1.0,1.0,1.0,1.0,1.0,20.0,,0 days 00:00:00.001000
2023-11-09 13:55:50.627,1.1127414,0.48685053,0.4608357,0.6455952,1.015767,0.49775806,-0.064032316,0.059430175,1.2291396,0.39736587,0.09150629,0.39835662,1.0311987,0.48181778,-0.014512403,0.7734131,0.80722123,0.090605065,0.023042684,0.78352773,761.9414,796.99634,805.05493,818.3516,923.5165,100.0,100.0,-0.01898193359375,0.027099609375,1.0087890625,2.773895263671875,-4.702911376953125,1.77947998046875,2035604.3956043955,113748058.6080586,46957509.157509156,62.56782,1.0,1.0,1.0,1.0,1.0,20.0,,0 days 00:00:00
2023-11-09 13:55:50.628,1.1127414,0.48685053,0.4608357,0.6455952,1.015767,0.49775806,-0.064032316,0.059430175,1.2291396,0.39736587,0.09150629,0.39835662,1.0311987,0.48181778,-0.014512403,0.7734131,0.80722123,0.090605065,0.023042684,0.78352773,759.12085,788.5348,805.4579,804.65204,745.42126,100.0,100.0,-0.01898193359375,0.027099609375,1.0087890625,2.773895263671875,-4.702911376953125,1.77947998046875,2035604.3956043955,113748058.6080586,46957509.157509156,62.56782,1.0,1.0,1.0,1.0,1.0,20.0,,0 days 00:00:00.001000
2023-11-09 13:55:50.629,1.1127414,0.48685053,0.4608357,0.6455952,1.015767,0.49775806,-0.064032316,0.059430175,1.2291396,0.39736587,0.09150629,0.39835662,1.0311987,0.48181778,-0.014512403,0.7734131,0.80722123,0.090605065,0.023042684,0.78352773,777.25275,798.60803,801.4286,784.90845,754.2857,100.0,100.0,-0.01898193359375,0.027099609375,1.0087890625,2.773895263671875,-4.702911376953125,1.77947998046875,2035604.3956043955,113748058.6080586,46957509.157509156,62.56782,1.0,1.0,1.0,1.0,1.0,20.0,,0 days 00:00:00.001000
2023-11-09 13:55:50.629,1.1127414,0.48685053,0.4608357,0.6455952,1.015767,0.49775806,-0.064032316,0.059430175,1.2291396,0.39736587,0.09150629,0.39835662,1.0311987,0.48181778,-0.014512403,0.7734131,0.80722123,0.090605065,0.023042684,0.78352773,774.43225,799.41394,799.81683,777.6557,889.67035,100.0,100.0,-0.01898193359375,0.027099609375,1.0087890625,2.773895263671875,-4.702911376953125,1.77947998046875,2035604.3956043955,113748058.6080586,46957509.157509156,62.56782,1.0,1.0,1.0,1.0,1.0,20.0,,0 days 00:00:00
2023-11-09 13:55:50.630,1.1127414,0.48685053,0.4608357,0.6455952,1.015767,0.49775806,-0.064032316,0.059430175,1.2291396,0.39736587,0.09150629,0.39835662,1.0311987,0.48181778,-0.014512403,0.7734131,0.80722123,0.090605065,0.023042684,0.78352773,768.7912,796.5934,801.8315,805.4579,865.89746,100.0,100.0,-0.01898193359375,0.027099609375,1.0087890625,2.773895263671875,-4.702911376953125,1.77947998046875,2035604.3956043955,113748058.6080586,46957509.157509156,62.56782,1.0,1.0,1.0,1.0,1.0,20.0,,0 days 00:00:00.001000
2023-11-09 13:55:50.630,1.1127414,0.48685053,0.4608357,0.6455952,1.015767,0.49775806,-0.064032316,0.059430175,1.2291396,0.39736587,0.09150629,0.39835662,1.0311987,0.48181778,-0.014512403,0.7734131,0.80722123,0.090605065,0.023042684,0.78352773,760.7326,805.8608,806.26373,813.91943,740.58606,100.0,100.0,-0.01898193359375,0.027099609375,1.0087890625,2.773895263671875,-4.702911376953125,1.77947998046875,2035604.3956043955,113748058.6080586,46957509.157509156,62.56782,1.0,1.0,1.0,1.0,1.0,20.0,,0 days 00:00:00
2023-11-09 13:55:50.631,1.1127414,0.48685053,0.4608357,0.6455952,1.015767,0.49775806,-0.064032316,0.059430175,1.2291396,0.39736587,0.09150629,0.39835662,1.0311987,0.48181778,-0.014512403,0.7734131,0.80722123,0.090605065,0.023042684,0.78352773,769.19415,810.293,810.293,792.96704,736.1539,100.0,100.0,-0.01898193359375,0.027099609375,1.0087890625,2.773895263671875,-4.702911376953125,1.77947998046875,2035604.3956043955,113748058.6080586,46957509.157509156,62.56782,1.0,1.0,1.0,1.0,1.0,20.0,,0 days 00:00:00.001000
2023-11-09 13:55:50.631,1.1127414,0.48685053,0.4608357,0.6455952,1.015767,0.49775806,-0.064032316,0.059430175,1.2291396,0.39736587,0.09150629,0.39835662,1.0311987,0.48181778,-0.014512403,0.7734131,0.80722123,0.090605065,0.023042684,0.78352773,776.8498,809.4872,812.71063,807.47253,933.9927,100.0,100.0,-0.01898193359375,0.027099609375,1.0087890625,2.773895263671875,-4.702911376953125,1.77947998046875,2035604.3956043955,113748058.6080586,46957509.157509156,62.56782,1.0,1.0,1.0,1.0,1.0,20.0,,0 days 00:00:00
2023-11-09 13:55:50.632,1.1127414,0.48685053,0.4608357,0.6455952,1.015767,0.49775806,-0.064032316,0.059430175,1.2291396,0.39736587,0.09150629,0.39835662,1.0311987,0.48181778,-0.014512403,0.7734131,0.80722123,0.090605065,0.023042684,0.78352773,784.90845,803.8461,807.8755,801.02563,822.7839,100.0,100.0,-0.01898193359375,0.027099609375,1.0087890625,2.773895263671875,-4.702911376953125,1.77947998046875,2035604.3956043955,113748058.6080586,46957509.157509156,62.56782,1.0,1.0,1.0,1.0,1.0,20.0,,0 days 00:00:00.001000
2023-11-09 13:55:50.633,1.1127414,0.48685053,0.4608357,0.6455952,1.015767,0.49775806,-0.064032316,0.059430175,1.2291396,0.39736587,0.09150629,0.39835662,1.0311987,0.48181778,-0.014512403,0.7734131,0.80722123,0.090605065,0.023042684,0.78352773,787.326,807.47253,804.2491,790.9524,650.32965,100.0,100.0,-0.01898193359375,0.027099609375,1.0087890625,2.773895263671875,-4.702911376953125,1.77947998046875,2035604.3956043955,113748058.6080586,46957509.157509156,62.56782,1.0,1.0,1.0,1.0,1.0,20.0,,0 days 00:00:00.001000
2023-11-09 13:55:50.658,1.1127414,0.48685053,0.4608357,0.6455952,1.015767,0.49775806,-0.064032316,0.059430175,1.2291396,0.39736587,0.09150629,0.39835662,1.0311987,0.48181778,-0.014512403,0.7734131,0.80722123,0.090605065,0.023042684,0.78352773,790.14655,811.50183,802.23444,780.07324,666.8498,100.0,100.0,-0.01898193359375,0.027099609375,1.0087890625,2.773895263671875,-4.702911376953125,1.77947998046875,2032380.9523809524,113681172.16117217,46934139.19413919,62.65163,1.0,1.0,1.0,1.0,1.0,20.0,,0 days 00:00:00.025000
2023-11-09 13:55:50.659,1.137337,0.48255762,0.45190126,0.6455952,1.014862,0.5174287,-0.01493185,0.059430175,1.2291396,0.34635964,0.09150629,0.39835662,1.0451404,0.49403197,0.019803433,0.7734131,0.7680952,0.09026623,0.020041369,0.78352773,788.5348,803.0403,800.6227,775.64105,693.44324,100.0,100.0,-0.01898193359375,0.027099609375,1.0087890625,2.773895263671875,-4.702911376953125,1.77947998046875,2032380.9523809524,113681172.16117217,46934139.19413919,62.65163,1.0,1.0,1.0,1.0,1.0,20.0,,0 days 00:00:00.001000
2023-11-09 13:55:50.661,1.137337,0.48255762,0.45190126,0.6455952,1.014862,0.5174287,-0.01493185,0.059430175,1.2291396,0.34635964,0.09150629,0.39835662,1.0451404,0.49403197,0.019803433,0.7734131,0.7680952,0.09026623,0.020041369,0.78352773,778.0586,796.1905,804.65204,787.326,738.1685,100.0,100.0,-0.01898193359375,0.027099609375,1.0087890625,2.773895263671875,-4.702911376953125,1.77947998046875,2032380.9523809524,113681172.16117217,46934139.19413919,62.65163,1.0,1.0,1.0,1.0,1.0,20.0,,0 days 00:00:00.002000
2023-11-09 13:55:50.661,1.137337,0.48255762,0.45190126,0.6455952,1.014862,0.5174287,-0.01493185,0.059430175,1.2291396,0.34635964,0.09150629,0.39835662,1.0451404,0.49403197,0.019803433,0.7734131,0.7680952,0.09026623,0.020041369,0.78352773,772.01465,789.7436,809.89014,796.5934,724.0659,100.0,100.0,-0.01898193359375,0.027099609375,1.0087890625,2.773895263671875,-4.702911376953125,1.77947998046875,2032380.9523809524,113681172.16117217,46934139.19413919,62.65163,1.0,1.0,1.0,1.0,1.0,20.0,,0 days 00:00:00
2023-11-09 13:55:50.662,1.137337,0.48255762,0.45190126,0.6455952,1.014862,0.5174287,-0.01493185,0.059430175,1.2291396,0.34635964,0.09150629,0.39835662,1.0451404,0.49403197,0.019803433,0.7734131,0.7680952,0.09026623,0.020041369,0.78352773,769.19415,797.3993,812.3077,788.5348,751.06226,100.0,100.0,-0.01898193359375,0.027099609375,1.0087890625,2.773895263671875,-4.702911376953125,1.77947998046875,2032380.9523809524,113681172.16117217,46934139.19413919,62.65163,1.0,1.0,1.0,1.0,1.0,20.0,,0 days 00:00:00.001000
2023-11-09 13:55:50.662,1.137337,0.48255762,0.45190126,0.6455952,1.014862,0.5174287,-0.01493185,0.059430175,1.2291396,0.34635964,0.09150629,0.39835662,1.0451404,0.49403197,0.019803433,0.7734131,0.7680952,0.09026623,0.020041369,0.78352773,774.43225,810.696,811.50183,795.78754,818.3516,100.0,100.0,-0.01898193359375,0.027099609375,1.0087890625,2.773895263671875,-4.702911376953125,1.77947998046875,2032380.9523809524,113681172.16117217,46934139.19413919,62.65163,1.0,1.0,1.0,1.0,1.0,20.0,,0 days 00:00:00
2023-11-09 13:55:50.662,1.137337,0.48255762,0.45190126,0.6455952,1.014862,0.5174287,-0.01493185,0.059430175,1.2291396,0.34635964,0.09150629,0.39835662,1.0451404,0.49403197,0.019803433,0.7734131,0.7680952,0.09026623,0.020041369,0.78352773,779.67035,811.50183,807.8755,798.20514,773.22345,100.0,100.0,-0.01898193359375,0.027099609375,1.0087890625,2.773895263671875,-4.702911376953125,1.77947998046875,2032380.9523809524,113681172.16117217,46934139.19413919,62.65163,1.0,1.0,1.0,1.0,1.0,20.0,,0 days 00:00:00
2023-11-09 13:55:50.663,1.137337,0.48255762,0.45190126,0.6455952,1.014862,0.5174287,-0.01493185,0.059430175,1.2291396,0.34635964,0.09150629,0.39835662,1.0451404,0.49403197,0.019803433,0.7734131,0.7680952,0.09026623,0.020041369,0.78352773,755.89746,805.8608,808.2784,780.07324,720.0366,100.0,100.0,-0.01898193359375,0.027099609375,1.0087890625,2.773895263671875,-4.702911376953125,1.77947998046875,2032380.9523809524,113681172.16117217,46934139.19413919,62.65163,1.0,1.0,1.0,1.0,1.0,20.0,,0 days 00:00:00.001000
2023-11-09 13:55:50.663,1.137337,0.48255762,0.45190126,0.6455952,1.014862,0.5174287,-0.01493185,0.059430175,1.2291396,0.34635964,0.09150629,0.39835662,1.0451404,0.49403197,0.019803433,0.7734131,0.7680952,0.09026623,0.020041369,0.78352773,756.30035,803.0403,812.71063,807.8755,882.4176,100.0,100.0,-0.01898193359375,0.027099609375,1.0087890625,2.773895263671875,-4.702911376953125,1.77947998046875,2032380.9523809524,113681172.16117217,46934139.19413919,62.65163,1.0,1.0,1.0,1.0,1.0,20.0,,0 days 00:00:00
2023-11-09 13:55:50.664,1.137337,0.48255762,0.45190126,0.6455952,1.014862,0.5174287,-0.01493185,0.059430175,1.2291396,0.34635964,0.09150629,0.39835662,1.0451404,0.49403197,0.019803433,0.7734131,0.7680952,0.09026623,0.020041369,0.78352773,772.4176,803.44324,813.91943,799.81683,1014.9817,100.0,100.0,-0.01898193359375,0.027099609375,1.0087890625,2.773895263671875,-4.702911376953125,1.77947998046875,2032380.9523809524,113681172.16117217,46934139.19413919,62.65163,1.0,1.0,1.0,1.0,1.0,20.0,,0 days 00:00:00.001000
2023-11-09 13:55:50.664,1.137337,0.48255762,0.45190126,0.6455952,1.014862,0.5174287,-0.01493185,0.059430175,1.2291396,0.34635964,0.09150629,0.39835662,1.0451404,0.49403197,0.019803433,0.7734131,0.7680952,0.09026623,0.020041369,0.78352773,768.3883,803.0403,812.3077,774.83514,824.7985,100.0,100.0,-0.01898193359375,0.027099609375,1.0087890625,2.773895263671875,-4.702911376953125,1.77947998046875,2032380.9523809524,113681172.16117217,46934139.19413919,62.65163,1.0,1.0,1.0,1.0,1.0,20.0,,0 days 00:00:00
2023-11-09 13:55:50.665,1.137337,0.48255762,0.45190126,0.6455952,1.014862,0.5174287,-0.01493185,0.059430175,1.2291396,0.34635964,0.09150629,0.39835662,1.0451404,0.49403197,0.019803433,0.7734131,0.7680952,0.09026623,0.020041369,0.78352773,777.25275,807.8755,811.50183,798.20514,777.25275,100.0,100.0,-0.01898193359375,0.027099609375,1.0087890625,2.773895263671875,-4.702911376953125,1.77947998046875,2032380.9523809524,113681172.16117217,46934139.19413919,62.65163,1.0,1.0,1.0,1.0,1.0,20.0,,0 days 00:00:00.001000
2023-11-09 13:55:50.686,1.137337,0.48255762,0.45190126,0.6455952,1.014862,0.5174287,-0.01493185,0.059430175,1.2291396,0.34635964,0.09150629,0.39835662,1.0451404,0.49403197,0.019803433,0.7734131,0.7680952,0.09026623,0.020041369,0.78352773,782.0879,807.0696,811.9048,805.05493,890.07324,100.0,100.0,-0.033447265625,0.031005859375,0.99493408203125,3.850555419921875,-5.689849853515625,0.46356201171875,2032380.9523809524,113681172.16117217,46934139.19413919,62.65163,1.0,1.0,1.0,1.0,1.0,20.0,,0 days 00:00:00.021000
2023-11-09 13:55:50.686,1.137337,0.48255762,0.45190126,0.6455952,1.014862,0.5174287,-0.01493185,0.059430175,1.2291396,0.34635964,0.09150629,0.39835662,1.0451404,0.49403197,0.019803433,0.7734131,0.7680952,0.09026623,0.020041369,0.78352773,772.4176,794.9817,816.337,799.011,924.3223,100.0,100.0,-0.033447265625,0.031005859375,0.99493408203125,3.850555419921875,-5.689849853515625,0.46356201171875,2032380.9523809524,113681172.16117217,46934139.19413919,62.65163,1.0,1.0,1.0,1.0,1.0,20.0,,0 days 00:00:00
2023-11-09 13:55:50.686,1.137337,0.48255762,0.45190126,0.6455952,1.014862,0.5174287,-0.01493185,0.059430175,1.2291396,0.34635964,0.09150629,0.39835662,1.0451404,0.49403197,0.019803433,0.7734131,0.7680952,0.09026623,0.020041369,0.78352773,761.53845,792.5641,823.1868,803.44324,781.685,100.0,100.0,-0.033447265625,0.031005859375,0.99493408203125,3.850555419921875,-5.689849853515625,0.46356201171875,2032380.9523809524,113681172.16117217,46934139.19413919,62.65163,1.0,1.0,1.0,1.0,1.0,20.0,,0 days 00:00:00
2023-11-09 13:55:50.687,1.137337,0.48255762,0.45190126,0.6455952,1.014862,0.5174287,-0.01493185,0.059430175,1.2291396,0.34635964,0.09150629,0.39835662,1.0451404,0.49403197,0.019803433,0.7734131,0.7680952,0.09026623,0.020041369,0.78352773,778.0586,798.60803,824.3956,808.68134,785.7143,100.0,100.0,-0.033447265625,0.031005859375,0.99493408203125,3.850555419921875,-5.689849853515625,0.46356201171875,2032380.9523809524,113681172.16117217,46934139.19413919,62.65163,1.0,1.0,1.0,1.0,1.0,20.0,,0 days 00:00:00.001000
2023-11-09 13:55:50.687,1.137337,0.48255762,0.45190126,0.6455952,1.014862,0.5174287,-0.01493185,0.059430175,1.2291396,0.34635964,0.09150629,0.39835662,1.0451404,0.49403197,0.019803433,0.7734131,0.7680952,0.09026623,0.020041369,0.78352773,797.8022,792.5641,822.381,806.6667,980.32965,100.0,100.0,-0.033447265625,0.031005859375,0.99493408203125,3.850555419921875,-5.689849853515625,0.46356201171875,2032380.9523809524,113681172.16117217,46934139.19413919,62.65163,1.0,1.0,1.0,1.0,1.0,20.0,,0 days 00:00:00
2023-11-09 13:55:50.687,1.137337,0.48255762,0.45190126,0.6455952,1.014862,0.5174287,-0.01493185,0.059430175,1.2291396,0.34635964,0.09150629,0.39835662,1.0451404,0.49403197,0.019803433,0.7734131,0.7680952,0.09026623,0.020041369,0.78352773,789.34064,802.6374,818.3516,803.8461,957.3626,100.0,100.0,-0.033447265625,0.031005859375,0.99493408203125,3.850555419921875,-5.689849853515625,0.46356201171875,2032380.9523809524,113681172.16117217,46934139.19413919,62.65163,1.0,1.0,1.0,1.0,1.0,20.0,,0 days 00:00:00
2023-11-09 13:55:50.687,1.137337,0.48255762,0.45190126,0.6455952,1.014862,0.5174287,-0.01493185,0.059430175,1.2291396,0.34635964,0.09150629,0.39835662,1.0451404,0.49403197,0.019803433,0.7734131,0.7680952,0.09026623,0.020041369,0.78352773,780.87915,811.0989,818.3516,810.293,890.07324,100.0,100.0,-0.033447265625,0.031005859375,0.99493408203125,3.850555419921875,-5.689849853515625,0.46356201171875,2032380.9523809524,113681172.16117217,46934139.19413919,62.65163,1.0,1.0,1.0,1.0,1.0,20.0,,0 days 00:00:00
2023-11-09 13:55:50.687,1.137337,0.48255762,0.45190126,0.6455952,1.014862,0.5174287,-0.01493185,0.059430175,1.2291396,0.34635964,0.09150629,0.39835662,1.0451404,0.49403197,0.019803433,0.7734131,0.7680952,0.09026623,0.020041369,0.78352773,777.6557,807.47253,821.978,803.8461,873.5531,100.0,100.0,-0.033447265625,0.031005859375,0.99493408203125,3.850555419921875,-5.689849853515625,0.46356201171875,2032380.9523809524,113681172.16117217,46934139.19413919,62.65163,1.0,1.0,1.0,1.0,1.0,20.0,,0 days 00:00:00
2023-11-09 13:55:50.688,1.137337,0.48255762,0.45190126,0.6455952,1.014862,0.5174287,-0.01493185,0.059430175,1.2291396,0.34635964,0.09150629,0.39835662,1.0451404,0.49403197,0.019803433,0.7734131,0.7680952,0.09026623,0.020041369,0.78352773,792.96704,810.293,821.1722,816.337,1064.5421,100.0,100.0,-0.033447265625,0.031005859375,0.99493408203125,3.850555419921875,-5.689849853515625,0.46356201171875,2032380.9523809524,113681172.16117217,46934139.19413919,62.65163,1.0,1.0,1.0,1.0,1.0,20.0,,0 days 00:00:00.001000
2023-11-09 13:55:50.688,1.137337,0.48255762,0.45190126,0.6455952,1.014862,0.5174287,-0.01493185,0.059430175,1.2291396,0.34635964,0.09150629,0.39835662,1.0451404,0.49403197,0.019803433,0.7734131,0.7680952,0.09026623,0.020041369,0.78352773,817.1429,816.7399,811.9048,825.6044,1032.7106,100.0,100.0,-0.033447265625,0.031005859375,0.99493408203125,3.850555419921875,-5.689849853515625,0.46356201171875,2032380.9523809524,113681172.16117217,46934139.19413919,62.65163,1.0,1.0,1.0,1.0,1.0,20.0,,0 days 00:00:00
2023-11-09 13:55:50.688,1.137337,0.48255762,0.45190126,0.6455952,1.014862,0.5174287,-0.01493185,0.059430175,1.2291396,0.34635964,0.09150629,0.39835662,1.0451404,0.49403197,0.019803433,0.7734131,0.7680952,0.09026623,0.020041369,0.78352773,799.41394,806.26373,809.0842,797.3993,746.2271,100.0,100.0,-0.033447265625,0.031005859375,0.99493408203125,3.850555419921875,-5.689849853515625,0.46356201171875,2032380.9523809524,113681172.16117217,46934139.19413919,62.65163,1.0,1.0,1.0,1.0,1.0,20.0,,0 days 00:00:00
2023-11-09 13:55:50.688,1.137337,0.48255762,0.45190126,0.6455952,1.014862,0.5174287,-0.01493185,0.059430175,1.2291396,0.34635964,0.09150629,0.39835662,1.0451404,0.49403197,0.019803433,0.7734131,0.7680952,0.09026623,0.020041369,0.78352773,775.2381,797.3993,817.5458,789.7436,718.8278,100.0,100.0,-0.033447265625,0.031005859375,0.99493408203125,3.850555419921875,-5.689849853515625,0.46356201171875,2032380.9523809524,113681172.16117217,46934139.19413919,62.65163,1.0,1.0,1.0,1.0,1.0,20.0,,0 days 00:00:00
2023-11-09 13:55:50.754,1.137337,0.48255762,0.45190126,0.6455952,1.014862,0.5174287,-0.01493185,0.059430175,1.2291396,0.34635964,0.09150629,0.39835662,1.0451404,0.49403197,0.019803433,0.7734131,0.7680952,0.09026623,0.020041369,0.78352773,784.5055,804.2491,816.337,800.2198,764.35895,100.0,100.0,-0.010986328125,0.03173828125,1.0133056640625,2.773895263671875,-3.60382080078125,-1.54022216796875,2027545.7875457872,113637655.67765568,46889816.84981685,62.730534,1.0,1.0,1.0,1.0,1.0,20.0,,0 days 00:00:00.066000
2023-11-09 13:55:50.755,1.137337,0.48255762,0.45190126,0.6455952,1.014862,0.5174287,-0.01493185,0.059430175,1.2291396,0.34635964,0.09150629,0.39835662,1.0451404,0.49403197,0.019803433,0.7734131,0.7680952,0.09026623,0.020041369,0.78352773,784.5055,801.4286,809.89014,789.34064,727.6923,100.0,100.0,-0.010986328125,0.03173828125,1.0133056640625,2.773895263671875,-3.60382080078125,-1.54022216796875,2027545.7875457872,113637655.67765568,46889816.84981685,62.730534,1.0,1.0,1.0,1.0,1.0,20.0,,0 days 00:00:00.001000
2023-11-09 13:55:50.756,1.137337,0.48255762,0.45190126,0.6455952,1.014862,0.5174287,-0.01493185,0.059430175,1.2291396,0.34635964,0.09150629,0.39835662,1.0451404,0.49403197,0.019803433,0.7734131,0.7680952,0.09026623,0.020041369,0.78352773,782.49084,801.8315,815.12823,792.96704,734.5421,100.0,100.0,-0.010986328125,0.03173828125,1.0133056640625,2.773895263671875,-3.60382080078125,-1.54022216796875,2027545.7875457872,113637655.67765568,46889816.84981685,62.730534,1.0,1.0,1.0,1.0,1.0,20.0,,0 days 00:00:00.001000
2023-11-09 13:55:50.756,1.137337,0.45027512,0.45190126,0.6455952,1.014862,0.5434882,-0.01493185,0.059430175,1.2291396,0.29759237,0.09150629,0.39835662,1.0451404,0.5137811,0.019803433,0.7734131,0.7680952,0.08488366,0.020041369,0.78352773,783.2967,811.0989,814.7253,802.6374,825.6044,100.0,100.0,-0.010986328125,0.03173828125,1.0133056640625,2.773895263671875,-3.60382080078125,-1.54022216796875,2027545.7875457872,113637655.67765568,46889816.84981685,62.730534,1.0,1.0,1.0,1.0,1.0,20.0,,0 days 00:00:00
2023-11-09 13:55:50.759,1.137337,0.45027512,0.45190126,0.6455952,1.014862,0.5434882,-0.01493185,0.059430175,1.2291396,0.29759237,0.09150629,0.39835662,1.0451404,0.5137811,0.019803433,0.7734131,0.7680952,0.08488366,0.020041369,0.78352773,799.81683,794.9817,807.47253,792.5641,807.8755,100.0,100.0,-0.010986328125,0.03173828125,1.0133056640625,2.773895263671875,-3.60382080078125,-1.54022216796875,2027545.7875457872,113637655.67765568,46889816.84981685,62.730534,1.0,1.0,1.0,1.0,1.0,20.0,,0 days 00:00:00.003000
2023-11-09 13:55:50.759,1.137337,0.45027512,0.45190126,0.6455952,1.014862,0.5434882,-0.01493185,0.059430175,1.2291396,0.29759237,0.09150629,0.39835662,1.0451404,0.5137811,0.019803433,0.7734131,0.7680952,0.08488366,0.020041369,0.78352773,797.8022,788.1319,812.3077,809.0842,771.6117,100.0,100.0,-0.010986328125,0.03173828125,1.0133056640625,2.773895263671875,-3.60382080078125,-1.54022216796875,2027545.7875457872,113637655.67765568,46889816.84981685,62.730534,1.0,1.0,1.0,1.0,1.0,20.0,,0 days 00:00:00
2023-11-09 13:55:50.760,1.137337,0.45027512,0.45190126,0.6455952,1.014862,0.5434882,-0.01493185,0.059430175,1.2291396,0.29759237,0.09150629,0.39835662,1.0451404,0.5137811,0.019803433,0.7734131,0.7680952,0.08488366,0.020041369,0.78352773,780.4762,811.0989,815.12823,812.3077,778.86444,100.0,100.0,-0.010986328125,0.03173828125,1.0133056640625,2.773895263671875,-3.60382080078125,-1.54022216796875,2027545.7875457872,113637655.67765568,46889816.84981685,62.730534,1.0,1.0,1.0,1.0,1.0,20.0,,0 days 00:00:00.001000
2023-11-09 13:55:50.760,1.137337,0.45027512,0.45190126,0.6455952,1.014862,0.5434882,-0.01493185,0.059430175,1.2291396,0.29759237,0.09150629,0.39835662,1.0451404,0.5137811,0.019803433,0.7734131,0.7680952,0.08488366,0.020041369,0.78352773,803.0403,825.6044,805.8608,801.02563,909.011,100.0,100.0,-0.010986328125,0.03173828125,1.0133056640625,2.773895263671875,-3.60382080078125,-1.54022216796875,2027545.7875457872,113637655.67765568,46889816.84981685,62.730534,1.0,1.0,1.0,1.0,1.0,20.0,,0 days 00:00:00
2023-11-09 13:55:50.761,1.137337,0.45027512,0.45190126,0.6455952,1.014862,0.5434882,-0.01493185,0.059430175,1.2291396,0.29759237,0.09150629,0.39835662,1.0451404,0.5137811,0.019803433,0.7734131,0.7680952,0.08488366,0.020041369,0.78352773,805.05493,818.3516,811.50183,819.9634,1035.1282,100.0,100.0,-0.010986328125,0.03173828125,1.0133056640625,2.773895263671875,-3.60382080078125,-1.54022216796875,2027545.7875457872,113637655.67765568,46889816.84981685,62.730534,1.0,1.0,1.0,1.0,1.0,20.0,,0 days 00:00:00.001000
2023-11-09 13:55:50.761,1.137337,0.45027512,0.45190126,0.6455952,1.014862,0.5434882,-0.01493185,0.059430175,1.2291396,0.29759237,0.09150629,0.39835662,1.0451404,0.5137811,0.019803433,0.7734131,0.7680952,0.08488366,0.020041369,0.78352773,788.5348,800.6227,824.7985,796.99634,762.3443,100.0,100.0,-0.010986328125,0.03173828125,1.0133056640625,2.773895263671875,-3.60382080078125,-1.54022216796875,2027545.7875457872,113637655.67765568,46889816.84981685,62.730534,1.0,1.0,1.0,1.0,1.0,20.0,,0 days 00:00:00
2023-11-09 13:55:50.762,1.137337,0.45027512,0.45190126,0.6455952,1.014862,0.5434882,-0.01493185,0.059430175,1.2291396,0.29759237,0.09150629,0.39835662,1.0451404,0.5137811,0.019803433,0.7734131,0.7680952,0.08488366,0.020041369,0.78352773,792.1612,793.7729,829.6337,794.17584,650.32965,100.0,100.0,-0.010986328125,0.03173828125,1.0133056640625,2.773895263671875,-3.60382080078125,-1.54022216796875,2027545.7875457872,113637655.67765568,46889816.84981685,62.730534,1.0,1.0,1.0,1.0,1.0,20.0,,0 days 00:00:00.001000
2023-11-09 13:55:50.762,1.137337,0.45027512,0.45190126,0.6455952,1.014862,0.5434882,-0.01493185,0.059430175,1.2291396,0.29759237,0.09150629,0.39835662,1.0451404,0.5137811,0.019803433,0.7734131,0.7680952,0.08488366,0.020041369,0.78352773,784.5055,797.8022,824.3956,834.4689,854.61536,100.0,100.0,-0.010986328125,0.03173828125,1.0133056640625,2.773895263671875,-3.60382080078125,-1.54022216796875,2027545.7875457872,113637655.67765568,46889816.84981685,62.730534,1.0,1.0,1.0,1.0,1.0,20.0,,0 days 00:00:00
2023-11-09 13:55:50.789,1.137337,0.45027512,0.45190126,0.6455952,1.014862,0.5434882,-0.01493185,0.059430175,1.2291396,0.29759237,0.09150629,0.39835662,1.0451404,0.5137811,0.019803433,0.7734131,0.7680952,0.08488366,0.020041369,0.78352773,776.04395,798.60803,823.5897,799.011,858.6447,100.0,100.0,-0.03448486328125,0.030517578125,0.98822021484375,3.90289306640625,-2.205657958984375,1.09161376953125,2027545.7875457872,113637655.67765568,46889816.84981685,62.730534,1.0,1.0,1.0,1.0,1.0,20.0,,0 days 00:00:00.027000
2023-11-09 13:55:50.789,1.137337,0.45027512,0.45190126,0.6455952,1.014862,0.5434882,-0.01493185,0.059430175,1.2291396,0.29759237,0.09150629,0.39835662,1.0451404,0.5137811,0.019803433,0.7734131,0.7680952,0.08488366,0.020041369,0.78352773,760.32965,799.011,830.84247,780.87915,725.2747,100.0,100.0,-0.03448486328125,0.030517578125,0.98822021484375,3.90289306640625,-2.205657958984375,1.09161376953125,2027545.7875457872,113637655.67765568,46889816.84981685,62.730534,1.0,1.0,1.0,1.0,1.0,20.0,,0 days 00:00:00
2023-11-09 13:55:50.790,1.137337,0.45027512,0.45190126,0.6455952,1.014862,0.5434882,-0.01493185,0.059430175,1.2291396,0.29759237,0.09150629,0.39835662,1.0451404,0.5137811,0.019803433,0.7734131,0.7680952,0.08488366,0.020041369,0.78352773,760.32965,792.5641,832.4542,796.99634,763.95605,100.0,100.0,-0.03448486328125,0.030517578125,0.98822021484375,3.90289306640625,-2.205657958984375,1.09161376953125,2027545.7875457872,113637655.67765568,46889816.84981685,62.730534,1.0,1.0,1.0,1.0,1.0,20.0,,0 days 00:00:00.001000
2023-11-09 13:55:50.790,1.137337,0.45027512,0.45190126,0.6455952,1.014862,0.5434882,-0.01493185,0.059430175,1.2291396,0.29759237,0.09150629,0.39835662,1.0451404,0.5137811,0.019803433,0.7734131,0.7680952,0.08488366,0.020041369,0.78352773,793.7729,790.9524,835.2747,811.0989,908.20514,100.0,100.0,-0.03448486328125,0.030517578125,0.98822021484375,3.90289306640625,-2.205657958984375,1.09161376953125,2027545.7875457872,113637655.67765568,46889816.84981685,62.730534,1.0,1.0,1.0,1.0,1.0,20.0,,0 days 00:00:00
2023-11-09 13:55:50.791,1.137337,0.45027512,0.45190126,0.6455952,1.014862,0.5434882,-0.01493185,0.059430175,1.2291396,0.29759237,0.09150629,0.39835662,1.0451404,0.5137811,0.019803433,0.7734131,0.7680952,0.08488366,0.020041369,0.78352773,805.05493,794.57874,835.6777,815.5311,846.1539,100.0,100.0,-0.03448486328125,0.030517578125,0.98822021484375,3.90289306640625,-2.205657958984375,1.09161376953125,2027545.7875457872,113637655.67765568,46889816.84981685,62.730534,1.0,1.0,1.0,1.0,1.0,20.0,,0 days 00:00:00.001000
2023-11-09 13:55:50.791,1.137337,0.45027512,0.45190126,0.6455952,1.014862,0.5434882,-0.01493185,0.059430175,1.2291396,0.29759237,0.09150629,0.39835662,1.0451404,0.5137811,0.019803433,0.7734131,0.7680952,0.08488366,0.020041369,0.78352773,807.47253,791.75824,832.0513,817.5458,812.71063,100.0,100.0,-0.03448486328125,0.030517578125,0.98822021484375,3.90289306640625,-2.205657958984375,1.09161376953125,2027545.7875457872,113637655.67765568,46889816.84981685,62.730534,1.0,1.0,1.0,1.0,1.0,20.0,,0 days 00:00:00
2023-11-09 13:55:50.791,1.137337,0.45027512,0.45190126,0.6455952,1.014862,0.5434882,-0.01493185,0.059430175,1.2291396,0.29759237,0.09150629,0.39835662,1.0451404,0.5137811,0.019803433,0.7734131,0.7680952,0.08488366,0.020041369,0.78352773,797.8022,791.75824,829.6337,811.50183,857.4359,100.0,100.0,-0.03448486328125,0.030517578125,0.98822021484375,3.90289306640625,-2.205657958984375,1.09161376953125,2027545.7875457872,113637655.67765568,46889816.84981685,62.730534,1.0,1.0,1.0,1.0,1.0,20.0,,0 days 00:00:00
2023-11-09 13:55:50.792,1.137337,0.45027512,0.45190126,0.6455952,1.014862,0.5434882,-0.01493185,0.059430175,1.2291396,0.29759237,0.09150629,0.39835662,1.0451404,0.5137811,0.019803433,0.7734131,0.7680952,0.08488366,0.020041369,0.78352773,816.7399,812.71063,827.619,811.50183,1004.90845,100.0,100.0,-0.03448486328125,0.030517578125,0.98822021484375,3.90289306640625,-2.205657958984375,1.09161376953125,2027545.7875457872,113637655.67765568,46889816.84981685,62.730534,1.0,1.0,1.0,1.0,1.0,20.0,,0 days 00:00:00.001000
2023-11-09 13:55:50.792,1.137337,0.45027512,0.45190126,0.6455952,1.014862,0.5434882,-0.01493185,0.059430175,1.2291396,0.29759237,0.09150629,0.39835662,1.0451404,0.5137811,0.019803433,0.7734131,0.7680952,0.08488366,0.020041369,0.78352773,830.0366,818.7546,819.9634,809.89014,912.23444,100.0,100.0,-0.03448486328125,0.030517578125,0.98822021484375,3.90289306640625,-2.205657958984375,1.09161376953125,2027545.7875457872,113637655.67765568,46889816.84981685,62.730534,1.0,1.0,1.0,1.0,1.0,20.0,,0 days 00:00:00
2023-11-09 13:55:50.792,1.137337,0.45027512,0.45190126,0.6455952,1.014862,0.5434882,-0.01493185,0.059430175,1.2291396,0.29759237,0.09150629,0.39835662,1.0451404,0.5137811,0.019803433,0.7734131,0.7680952,0.08488366,0.020041369,0.78352773,821.978,810.293,813.1135,807.0696,747.03296,100.0,100.0,-0.03448486328125,0.030517578125,0.98822021484375,3.90289306640625,-2.205657958984375,1.09161376953125,2027545.7875457872,113637655.67765568,46889816.84981685,62.730534,1.0,1.0,1.0,1.0,1.0,20.0,,0 days 00:00:00
2023-11-09 13:55:50.793,1.137337,0.45027512,0.45190126,0.6455952,1.014862,0.5434882,-0.01493185,0.059430175,1.2291396,0.29759237,0.09150629,0.39835662,1.0451404,0.5137811,0.019803433,0.7734131,0.7680952,0.08488366,0.020041369,0.78352773,811.9048,815.12823,815.5311,812.3077,728.9011,100.0,100.0,-0.03448486328125,0.030517578125,0.98822021484375,3.90289306640625,-2.205657958984375,1.09161376953125,2027545.7875457872,113637655.67765568,46889816.84981685,62.730534,1.0,1.0,1.0,1.0,1.0,20.0,,0 days 00:00:00.001000
2023-11-09 13:55:50.793,1.137337,0.45027512,0.45190126,0.6455952,1.014862,0.5434882,-0.01493185,0.059430175,1.2291396,0.29759237,0.09150629,0.39835662,1.0451404,0.5137811,0.019803433,0.7734131,0.7680952,0.08488366,0.020041369,0.78352773,825.6044,812.3077,817.1429,813.91943,697.0696,100.0,100.0,-0.03448486328125,0.030517578125,0.98822021484375,3.90289306640625,-2.205657958984375,1.09161376953125,2027545.7875457872,113637655.67765568,46889816.84981685,62.730534,1.0,1.0,1.0,1.0,1.0,20.0,,0 days 00:00:00
2023-11-09 13:55:50.859,1.137337,0.45027512,0.45190126,0.6455952,1.014862,0.5434882,-0.01493185,0.059430175,1.2291396,0.29759237,0.09150629,0.39835662,1.0451404,0.5137811,0.019803433,0.7734131,0.7680952,0.08488366,0.020041369,0.78352773,836.08057,802.6374,818.7546,809.4872,703.91943,100.0,100.0,-0.03265380859375,0.025390625,1.0008544921875,5.181427001953125,-2.10845947265625,-0.777587890625,2037216.1172161172,113594139.1941392,46923663.003663,62.80483,1.0,1.0,1.0,1.0,1.0,20.0,,0 days 00:00:00.066000
2023-11-09 13:55:50.859,1.137337,0.45027512,0.45190126,0.6455952,1.014862,0.5434882,-0.01493185,0.059430175,1.2291396,0.29759237,0.09150629,0.39835662,1.0451404,0.5137811,0.019803433,0.7734131,0.7680952,0.08488366,0.020041369,0.78352773,818.3516,800.6227,821.5751,826.4103,677.326,100.0,100.0,-0.03265380859375,0.025390625,1.0008544921875,5.181427001953125,-2.10845947265625,-0.777587890625,2037216.1172161172,113594139.1941392,46923663.003663,62.80483,1.0,1.0,1.0,1.0,1.0,20.0,,0 days 00:00:00
2023-11-09 13:55:50.860,1.137337,0.45027512,0.45190126,0.6455952,1.014862,0.5434882,-0.01493185,0.059430175,1.2291396,0.29759237,0.09150629,0.39835662,1.0451404,0.5137811,0.019803433,0.7734131,0.7680952,0.08488366,0.020041369,0.78352773,799.41394,807.8755,817.9487,848.97437,693.44324,100.0,100.0,-0.03265380859375,0.025390625,1.0008544921875,5.181427001953125,-2.10845947265625,-0.777587890625,2037216.1172161172,113594139.1941392,46923663.003663,62.80483,1.0,1.0,1.0,1.0,1.0,20.0,,0 days 00:00:00.001000
2023-11-09 13:55:50.861,1.137337,0.45027512,0.45190126,0.6455952,1.014862,0.5434882,-0.01493185,0.059430175,1.2291396,0.29759237,0.09150629,0.39835662,1.0451404,0.5137811,0.019803433,0.7734131,0.7680952,0.08488366,0.020041369,0.78352773,804.2491,811.50183,816.7399,824.7985,759.12085,100.0,100.0,-0.03265380859375,0.025390625,1.0008544921875,5.181427001953125,-2.10845947265625,-0.777587890625,2037216.1172161172,113594139.1941392,46923663.003663,62.80483,1.0,1.0,1.0,1.0,1.0,20.0,,0 days 00:00:00.001000
2023-11-09 13:55:50.861,1.137337,0.45027512,0.45190126,0.6455952,1.014862,0.5434882,-0.01493185,0.059430175,1.2291396,0.29759237,0.09150629,0.39835662,1.0451404,0.5137811,0.019803433,0.7734131,0.7680952,0.08488366,0.020041369,0.78352773,818.7546,803.44324,814.3223,820.3663,740.18317,100.0,100.0,-0.03265380859375,0.025390625,1.0008544921875,5.181427001953125,-2.10845947265625,-0.777587890625,2037216.1172161172,113594139.1941392,46923663.003663,62.80483,1.0,1.0,1.0,1.0,1.0,20.0,,0 days 00:00:00
2023-11-09 13:55:50.862,1.137337,0.45027512,0.45190126,0.6455952,1.014862,0.5434882,-0.01493185,0.059430175,1.2291396,0.29759237,0.09150629,0.39835662,1.0451404,0.5137811,0.019803433,0.7734131,0.7680952,0.08488366,0.020041369,0.78352773,821.5751,799.011,815.5311,828.4249,720.84247,100.0,100.0,-0.03265380859375,0.025390625,1.0008544921875,5.181427001953125,-2.10845947265625,-0.777587890625,2037216.1172161172,113594139.1941392,46923663.003663,62.80483,1.0,1.0,1.0,1.0,1.0,20.0,,0 days 00:00:00.001000
2023-11-09 13:55:50.864,1.137337,0.45027512,0.45190126,0.6455952,1.014862,0.5434882,-0.01493185,0.059430175,1.2291396,0.29759237,0.09150629,0.39835662,1.0451404,0.5137811,0.019803433,0.7734131,0.7680952,0.08488366,0.020041369,0.78352773,838.49817,808.68134,814.7253,808.68134,895.7143,100.0,100.0,-0.03265380859375,0.025390625,1.0008544921875,5.181427001953125,-2.10845947265625,-0.777587890625,2037216.1172161172,113594139.1941392,46923663.003663,62.80483,1.0,1.0,1.0,1.0,1.0,20.0,,0 days 00:00:00.002000
2023-11-09 13:55:50.864,1.137337,0.45027512,0.45190126,0.6455952,1.014862,0.5434882,-0.01493185,0.059430175,1.2291396,0.29759237,0.09150629,0.39835662,1.0451404,0.5137811,0.019803433,0.7734131,0.7680952,0.08488366,0.020041369,0.78352773,830.4396,815.5311,812.3077,804.65204,1058.0952,100.0,100.0,-0.03265380859375,0.025390625,1.0008544921875,5.181427001953125,-2.10845947265625,-0.777587890625,2037216.1172161172,113594139.1941392,46923663.003663,62.80483,1.0,1.0,1.0,1.0,1.0,20.0,,0 days 00:00:00
2023-11-09 13:55:50.865,1.137337,0.45027512,0.45190126,0.6455952,1.014862,0.5434882,-0.01493185,0.059430175,1.2291396,0.29759237,0.09150629,0.39835662,1.0451404,0.5137811,0.019803433,0.7734131,0.7680952,0.08488366,0.020041369,0.78352773,826.0073,808.68134,811.50183,800.2198,865.4945,100.0,100.0,-0.03265380859375,0.025390625,1.0008544921875,5.181427001953125,-2.10845947265625,-0.777587890625,2037216.1172161172,113594139.1941392,46923663.003663,62.80483,1.0,1.0,1.0,1.0,1.0,20.0,,0 days 00:00:00.001000
2023-11-09 13:55:50.865,1.137337,0.45027512,0.45190126,0.6455952,1.014862,0.5434882,-0.01493185,0.059430175,1.2291396,0.29759237,0.09150629,0.39835662,1.0451404,0.5137811,0.019803433,0.7734131,0.7680952,0.08488366,0.020041369,0.78352773,838.49817,810.696,809.89014,794.9817,732.9304,100.0,100.0,-0.03265380859375,0.025390625,1.0008544921875,5.181427001953125,-2.10845947265625,-0.777587890625,2037216.1172161172,113594139.1941392,46923663.003663,62.80483,1.0,1.0,1.0,1.0,1.0,20.0,,0 days 00:00:00
2023-11-09 13:55:50.865,1.137337,0.45027512,0.45190126,0.6455952,1.014862,0.5434882,-0.01493185,0.059430175,1.2291396,0.29759237,0.09150629,0.39835662,1.0451404,0.5137811,0.019803433,0.7734131,0.7680952,0.08488366,0.020041369,0.78352773,818.3516,808.68134,815.5311,813.5165,789.34064,100.0,100.0,-0.03265380859375,0.025390625,1.0008544921875,5.181427001953125,-2.10845947265625,-0.777587890625,2037216.1172161172,113594139.1941392,46923663.003663,62.80483,1.0,1.0,1.0,1.0,1.0,20.0,,0 days 00:00:00
2023-11-09 13:55:50.866,1.137337,0.45027512,0.45190126,0.6455952,1.014862,0.5434882,-0.01493185,0.059430175,1.2291396,0.29759237,0.09150629,0.39835662,1.0451404,0.5137811,0.019803433,0.7734131,0.7680952,0.08488366,0.020041369,0.78352773,809.89014,804.65204,823.5897,819.9634,797.3993,100.0,100.0,-0.03265380859375,0.025390625,1.0008544921875,5.181427001953125,-2.10845947265625,-0.777587890625,2037216.1172161172,113594139.1941392,46923663.003663,62.80483,1.0,1.0,1.0,1.0,1.0,20.0,,0 days 00:00:00.001000
2023-11-09 13:55:50.905,1.137337,0.45027512,0.45190126,0.6455952,1.014862,0.5434882,-0.01493185,0.059430175,1.2291396,0.29759237,0.09150629,0.39835662,1.0451404,0.5137811,0.019803433,0.7734131,0.7680952,0.08488366,0.020041369,0.78352773,821.1722,808.68134,819.15753,813.91943,774.83514,100.0,100.0,-0.03265380859375,0.025390625,1.0008544921875,5.181427001953125,-2.10845947265625,-0.777587890625,2037216.1172161172,113594139.1941392,46923663.003663,62.80483,1.0,1.0,1.0,1.0,1.0,20.0,,0 days 00:00:00.039000
2023-11-09 13:55:50.905,1.137337,0.45027512,0.45190126,0.6455952,1.014862,0.5434882,-0.01493185,0.059430175,1.2291396,0.29759237,0.09150629,0.39835662,1.0451404,0.5137811,0.019803433,0.7734131,0.7680952,0.08488366,0.020041369,0.78352773,822.7839,803.0403,816.7399,813.1135,784.90845,100.0,100.0,-0.03265380859375,0.025390625,1.0008544921875,5.181427001953125,-2.10845947265625,-0.777587890625,2037216.1172161172,113594139.1941392,46923663.003663,62.80483,1.0,1.0,1.0,1.0,1.0,20.0,,0 days 00:00:00
2023-11-09 13:55:50.906,1.137337,0.45027512,0.45190126,0.6455952,1.014862,0.5434882,-0.01493185,0.059430175,1.2291396,0.29759237,0.09150629,0.39835662,1.0451404,0.5137811,0.019803433,0.7734131,0.7680952,0.08488366,0.020041369,0.78352773,823.9927,798.60803,818.7546,812.3077,923.5165,100.0,100.0,-0.03265380859375,0.025390625,1.0008544921875,5.181427001953125,-2.10845947265625,-0.777587890625,2037216.1172161172,113594139.1941392,46923663.003663,62.80483,1.0,1.0,1.0,1.0,1.0,20.0,,0 days 00:00:00.001000
2023-11-09 13:55:50.907,1.137337,0.45027512,0.45190126,0.6455952,1.014862,0.5434882,-0.01493185,0.059430175,1.2291396,0.29759237,0.09150629,0.39835662,1.0451404,0.5137811,0.019803433,0.7734131,0.7680952,0.08488366,0.020041369,0.78352773,834.0659,796.1905,804.65204,804.65204,863.47986,100.0,100.0,-0.03265380859375,0.025390625,1.0008544921875,5.181427001953125,-2.10845947265625,-0.777587890625,2037216.1172161172,113594139.1941392,46923663.003663,62.80483,1.0,1.0,1.0,1.0,1.0,20.0,,0 days 00:00:00.001000
2023-11-09 13:55:50.907,1.137337,0.45027512,0.45190126,0.6455952,1.014862,0.5434882,-0.01493185,0.059430175,1.2291396,0.29759237,0.09150629,0.39835662,1.0451404,0.5137811,0.019803433,0.7734131,0.7680952,0.08488366,0.020041369,0.78352773,808.68134,790.54944,796.99634,799.41394,725.6777,100.0,100.0,-0.03265380859375,0.025390625,1.0008544921875,5.181427001953125,-2.10845947265625,-0.777587890625,2037216.1172161172,113594139.1941392,46923663.003663,62.80483,1.0,1.0,1.0,1.0,1.0,20.0,,0 days 00:00:00
2023-11-09 13:55:50.908,1.137337,0.45027512,0.45190126,0.6455952,1.014862,0.5434882,-0.01493185,0.059430175,1.2291396,0.29759237,0.09150629,0.39835662,1.0451404,0.5137811,0.019803433,0.7734131,0.7680952,0.08488366,0.020041369,0.78352773,795.38464,788.5348,811.50183,797.8022,823.9927,100.0,100.0,-0.03265380859375,0.025390625,1.0008544921875,5.181427001953125,-2.10845947265625,-0.777587890625,2037216.1172161172,113594139.1941392,46923663.003663,62.80483,1.0,1.0,1.0,1.0,1.0,20.0,,0 days 00:00:00.001000
2023-11-09 13:55:50.908,1.137337,0.45027512,0.45190126,0.6455952,1.014862,0.5434882,-0.01493185,0.059430175,1.2291396,0.29759237,0.09150629,0.39835662,1.0451404,0.5137811,0.019803433,0.7734131,0.7680952,0.08488366,0.020041369,0.78352773,821.1722,801.02563,817.5458,809.4872,1128.2051,100.0,100.0,-0.03265380859375,0.025390625,1.0008544921875,5.181427001953125,-2.10845947265625,-0.777587890625,2037216.1172161172,113594139.1941392,46923663.003663,62.80483,1.0,1.0,1.0,1.0,1.0,20.0,,0 days 00:00:00
2023-11-09 13:55:50.909,1.137337,0.45027512,0.45190126,0.6455952,1.014862,0.5434882,-0.01493185,0.059430175,1.2291396,0.29759237,0.09150629,0.39835662,1.0451404,0.5137811,0.019803433,0.7734131,0.7680952,0.08488366,0.020041369,0.78352773,819.9634,813.91943,811.9048,796.5934,1088.7179,100.0,100.0,-0.03265380859375,0.025390625,1.0008544921875,5.181427001953125,-2.10845947265625,-0.777587890625,2037216.1172161172,113594139.1941392,46923663.003663,62.80483,1.0,1.0,1.0,1.0,1.0,20.0,,0 days 00:00:00.001000
2023-11-09 13:55:50.910,1.137337,0.45027512,0.45190126,0.6455952,1.014862,0.5434882,-0.01493185,0.059430175,1.2291396,0.29759237,0.09150629,0.39835662,1.0451404,0.5137811,0.019803433,0.7734131,0.7680952,0.08488366,0.020041369,0.78352773,805.4579,813.5165,811.9048,783.69965,782.0879,100.0,100.0,-0.03265380859375,0.025390625,1.0008544921875,5.181427001953125,-2.10845947265625,-0.777587890625,2037216.1172161172,113594139.1941392,46923663.003663,62.80483,1.0,1.0,1.0,1.0,1.0,20.0,,0 days 00:00:00.001000
2023-11-09 13:55:50.910,1.137337,0.45027512,0.45190126,0.6455952,1.014862,0.5434882,-0.01493185,0.059430175,1.2291396,0.29759237,0.09150629,0.39835662,1.0451404,0.5137811,0.019803433,0.7734131,0.7680952,0.08488366,0.020041369,0.78352773,818.7546,805.4579,813.1135,803.8461,776.4469,100.0,100.0,-0.03265380859375,0.025390625,1.0008544921875,5.181427001953125,-2.10845947265625,-0.777587890625,2037216.1172161172,113594139.1941392,46923663.003663,62.80483,1.0,1.0,1.0,1.0,1.0,20.0,,0 days 00:00:00
2023-11-09 13:55:50.911,1.137337,0.45027512,0.45190126,0.6455952,1.014862,0.5434882,-0.01493185,0.059430175,1.2291396,0.29759237,0.09150629,0.39835662,1.0451404,0.5137811,0.019803433,0.7734131,0.7680952,0.08488366,0.020041369,0.78352773,816.337,800.2198,809.89014,817.1429,776.04395,100.0,100.0,-0.03265380859375,0.025390625,1.0008544921875,5.181427001953125,-2.10845947265625,-0.777587890625,2037216.1172161172,113594139.1941392,46923663.003663,62.80483,1.0,1.0,1.0,1.0,1.0,20.0,,0 days 00:00:00.001000
2023-11-09 13:55:50.911,1.137337,0.45027512,0.45190126,0.6455952,1.014862,0.5434882,-0.01493185,0.059430175,1.2291396,0.29759237,0.09150629,0.39835662,1.0451404,0.5137811,0.019803433,0.7734131,0.7680952,0.08488366,0.020041369,0.78352773,795.78754,797.8022,807.47253,790.9524,742.6007,100.0,100.0,-0.03265380859375,0.025390625,1.0008544921875,5.181427001953125,-2.10845947265625,-0.777587890625,2037216.1172161172,113594139.1941392,46923663.003663,62.80483,1.0,1.0,1.0,1.0,1.0,20.0,,0 days 00:00:00
2023-11-09 13:55:50.938,1.137337,0.45027512,0.45190126,0.6455952,1.014862,0.5434882,-0.01493185,0.059430175,1.2291396,0.29759237,0.09150629,0.39835662,1.0451404,0.5137811,0.019803433,0.7734131,0.7680952,0.08488366,0.020041369,0.78352773,803.0403,803.0403,810.293,792.96704,753.8828,100.0,100.0,-0.02484130859375,0.03826904296875,0.998046875,6.018829345703125,-3.940277099609375,-1.57012939453125,2042857.1428571427,113582857.14285712,46955091.57509157,62.874775,1.0,1.0,1.0,1.0,1.0,20.0,,0 days 00:00:00.027000
2023-11-09 13:55:50.939,1.137337,0.45027512,0.45190126,0.6455952,1.014862,0.5434882,-0.01493185,0.059430175,1.2291396,0.29759237,0.09150629,0.39835662,1.0451404,0.5137811,0.019803433,0.7734131,0.7680952,0.08488366,0.020041369,0.78352773,805.05493,803.8461,809.89014,809.0842,755.4945,100.0,100.0,-0.02484130859375,0.03826904296875,0.998046875,6.018829345703125,-3.940277099609375,-1.57012939453125,2042857.1428571427,113582857.14285712,46955091.57509157,62.874775,1.0,1.0,1.0,1.0,1.0,20.0,,0 days 00:00:00.001000
2023-11-09 13:55:50.939,1.137337,0.45027512,0.45190126,0.6455952,1.014862,0.5434882,-0.01493185,0.059430175,1.2291396,0.29759237,0.09150629,0.39835662,1.0451404,0.5137811,0.019803433,0.7734131,0.7680952,0.08488366,0.020041369,0.78352773,793.7729,801.4286,799.41394,791.3553,766.3736,100.0,100.0,-0.02484130859375,0.03826904296875,0.998046875,6.018829345703125,-3.940277099609375,-1.57012939453125,2042857.1428571427,113582857.14285712,46955091.57509157,62.874775,1.0,1.0,1.0,1.0,1.0,20.0,,0 days 00:00:00
2023-11-09 13:55:50.940,1.137337,0.45027512,0.45190126,0.6455952,1.014862,0.5434882,-0.01493185,0.059430175,1.2291396,0.29759237,0.09150629,0.39835662,1.0451404,0.5137811,0.019803433,0.7734131,0.7680952,0.08488366,0.020041369,0.78352773,802.23444,804.2491,806.26373,782.0879,745.42126,100.0,100.0,-0.02484130859375,0.03826904296875,0.998046875,6.018829345703125,-3.940277099609375,-1.57012939453125,2042857.1428571427,113582857.14285712,46955091.57509157,62.874775,1.0,1.0,1.0,1.0,1.0,20.0,,0 days 00:00:00.001000
2023-11-09 13:55:50.940,1.137337,0.45027512,0.45190126,0.6455952,1.014862,0.5434882,-0.01493185,0.059430175,1.2291396,0.29759237,0.09150629,0.39835662,1.0451404,0.5137811,0.019803433,0.7734131,0.7680952,0.08488366,0.020041369,0.78352773,805.4579,804.2491,814.3223,789.7436,746.2271,100.0,100.0,-0.02484130859375,0.03826904296875,0.998046875,6.018829345703125,-3.940277099609375,-1.57012939453125,2042857.1428571427,113582857.14285712,46955091.57509157,62.874775,1.0,1.0,1.0,1.0,1.0,20.0,,0 days 00:00:00
2023-11-09 13:55:50.940,1.137337,0.45027512,0.45190126,0.6455952,1.014862,0.5434882,-0.01493185,0.059430175,1.2291396,0.29759237,0.09150629,0.39835662,1.0451404,0.5137811,0.019803433,0.7734131,0.7680952,0.08488366,0.020041369,0.78352773,822.381,798.60803,814.7253,802.23444,862.27106,100.0,100.0,-0.02484130859375,0.03826904296875,0.998046875,6.018829345703125,-3.940277099609375,-1.57012939453125,2042857.1428571427,113582857.14285712,46955091.57509157,62.874775,1.0,1.0,1.0,1.0,1.0,20.0,,0 days 00:00:00
2023-11-09 13:55:50.941,1.137337,0.45027512,0.45190126,0.6455952,1.014862,0.5434882,-0.01493185,0.059430175,1.2291396,0.29759237,0.09150629,0.39835662,1.0451404,0.5137811,0.019803433,0.7734131,0.7680952,0.08488366,0.020041369,0.78352773,827.2161,804.2491,813.91943,801.4286,881.2088,100.0,100.0,-0.02484130859375,0.03826904296875,0.998046875,6.018829345703125,-3.940277099609375,-1.57012939453125,2042857.1428571427,113582857.14285712,46955091.57509157,62.874775,1.0,1.0,1.0,1.0,1.0,20.0,,0 days 00:00:00.001000
2023-11-09 13:55:50.941,1.137337,0.45027512,0.45190126,0.6455952,1.014862,0.5434882,-0.01493185,0.059430175,1.2291396,0.29759237,0.09150629,0.39835662,1.0451404,0.5137811,0.019803433,0.7734131,0.7680952,0.08488366,0.020041369,0.78352773,803.0403,814.7253,815.12823,786.9231,770.80585,100.0,100.0,-0.02484130859375,0.03826904296875,0.998046875,6.018829345703125,-3.940277099609375,-1.57012939453125,2042857.1428571427,113582857.14285712,46955091.57509157,62.874775,1.0,1.0,1.0,1.0,1.0,20.0,,0 days 00:00:00
2023-11-09 13:55:50.942,1.137337,0.45027512,0.45190126,0.6455952,1.014862,0.5434882,-0.01493185,0.059430175,1.2291396,0.29759237,0.09150629,0.39835662,1.0451404,0.5137811,0.019803433,0.7734131,0.7680952,0.08488366,0.020041369,0.78352773,825.2015,819.15753,816.337,791.3553,678.1319,100.0,100.0,-0.02484130859375,0.03826904296875,0.998046875,6.018829345703125,-3.940277099609375,-1.57012939453125,2042857.1428571427,113582857.14285712,46955091.57509157,62.874775,1.0,1.0,1.0,1.0,1.0,20.0,,0 days 00:00:00.001000
2023-11-09 13:55:50.943,1.137337,0.45027512,0.45190126,0.6455952,1.014862,0.5434882,-0.01493185,0.059430175,1.2291396,0.29759237,0.09150629,0.39835662,1.0451404,0.5137811,0.019803433,0.7734131,0.7680952,0.08488366,0.020041369,0.78352773,819.5604,812.3077,809.4872,815.5311,801.4286,100.0,100.0,-0.02484130859375,0.03826904296875,0.998046875,6.018829345703125,-3.940277099609375,-1.57012939453125,2042857.1428571427,113582857.14285712,46955091.57509157,62.874775,1.0,1.0,1.0,1.0,1.0,20.0,,0 days 00:00:00.001000
2023-11-09 13:55:50.943,1.137337,0.45027512,0.45190126,0.6455952,1.014862,0.5434882,-0.01493185,0.059430175,1.2291396,0.29759237,0.09150629,0.39835662,1.0451404,0.5137811,0.019803433,0.7734131,0.7680952,0.08488366,0.020041369,0.78352773,795.38464,810.293,808.68134,808.2784,896.9231,100.0,100.0,-0.02484130859375,0.03826904296875,0.998046875,6.018829345703125,-3.940277099609375,-1.57012939453125,2042857.1428571427,113582857.14285712,46955091.57509157,62.874775,1.0,1.0,1.0,1.0,1.0,20.0,,0 days 00:00:00
2023-11-09 13:55:50.943,1.137337,0.45027512,0.45190126,0.6455952,1.014862,0.5434882,-0.01493185,0.059430175,1.2291396,0.29759237,0.09150629,0.39835662,1.0451404,0.5137811,0.019803433,0.7734131,0.7680952,0.08488366,0.020041369,0.78352773,799.81683,809.89014,813.5165,796.1905,730.10986,100.0,100.0,-0.02484130859375,0.03826904296875,0.998046875,6.018829345703125,-3.940277099609375,-1.57012939453125,2042857.1428571427,113582857.14285712,46955091.57509157,62.874775,1.0,1.0,1.0,1.0,1.0,20.0,,0 days 00:00:00
2023-11-09 13:55:51.004,1.137337,0.45027512,0.45190126,0.6455952,1.014862,0.5434882,-0.01493185,0.059430175,1.2291396,0.29759237,0.09150629,0.39835662,1.0451404,0.5137811,0.019803433,0.7734131,0.7680952,0.08488366,0.020041369,0.78352773,802.6374,812.71063,811.9048,805.8608,757.1062,100.0,100.0,-0.01434326171875,0.0418701171875,1.0211181640625,3.985137939453125,-6.160888671875,0.31402587890625,2042857.1428571427,113582857.14285712,46955091.57509157,62.874775,1.0,1.0,1.0,1.0,1.0,20.0,,0 days 00:00:00.061000
2023-11-09 13:55:51.005,1.137337,0.45027512,0.45190126,0.6455952,1.014862,0.5434882,-0.01493185,0.059430175,1.2291396,0.29759237,0.09150629,0.39835662,1.0451404,0.5137811,0.019803433,0.7734131,0.7680952,0.08488366,0.020041369,0.78352773,808.2784,810.293,811.50183,807.47253,852.6007,100.0,100.0,-0.01434326171875,0.0418701171875,1.0211181640625,3.985137939453125,-6.160888671875,0.31402587890625,2042857.1428571427,113582857.14285712,46955091.57509157,62.874775,1.0,1.0,1.0,1.0,1.0,20.0,,0 days 00:00:00.001000
2023-11-09 13:55:51.006,1.137337,0.45027512,0.45190126,0.6455952,1.014862,0.5434882,-0.01493185,0.059430175,1.2291396,0.29759237,0.09150629,0.39835662,1.0451404,0.5137811,0.019803433,0.7734131,0.7680952,0.08488366,0.020041369,0.78352773,759.5238,803.8461,817.5458,790.54944,758.71796,100.0,100.0,-0.01434326171875,0.0418701171875,1.0211181640625,3.985137939453125,-6.160888671875,0.31402587890625,2042857.1428571427,113582857.14285712,46955091.57509157,62.874775,1.0,1.0,1.0,1.0,1.0,20.0,,0 days 00:00:00.001000
2023-11-09 13:55:51.006,1.137337,0.45027512,0.45190126,0.6455952,1.014862,0.5434882,-0.01493185,0.059430175,1.2291396,0.29759237,0.09150629,0.39835662,1.0451404,0.5137811,0.019803433,0.7734131,0.7680952,0.08488366,0.020041369,0.78352773,746.63007,801.8315,808.2784,774.0293,671.685,100.0,100.0,-0.01434326171875,0.0418701171875,1.0211181640625,3.985137939453125,-6.160888671875,0.31402587890625,2042857.1428571427,113582857.14285712,46955091.57509157,62.874775,1.0,1.0,1.0,1.0,1.0,20.0,,0 days 00:00:00
2023-11-09 13:55:51.007,1.137337,0.45027512,0.45190126,0.6455952,1.014862,0.5434882,-0.01493185,0.059430175,1.2291396,0.29759237,0.09150629,0.39835662,1.0451404,0.5137811,0.019803433,0.7734131,0.7680952,0.08488366,0.020041369,0.78352773,767.5824,802.6374,806.26373,780.4762,728.9011,100.0,100.0,-0.01434326171875,0.0418701171875,1.0211181640625,3.985137939453125,-6.160888671875,0.31402587890625,2042857.1428571427,113582857.14285712,46955091.57509157,62.874775,1.0,1.0,1.0,1.0,1.0,20.0,,0 days 00:00:00.001000
2023-11-09 13:55:51.007,1.137337,0.45027512,0.45190126,0.6455952,1.014862,0.5434882,-0.01493185,0.059430175,1.2291396,0.29759237,0.09150629,0.39835662,1.0451404,0.5137811,0.019803433,0.7734131,0.7680952,0.08488366,0.020041369,0.78352773,775.2381,811.0989,813.1135,785.31134,878.3883,100.0,100.0,-0.01434326171875,0.0418701171875,1.0211181640625,3.985137939453125,-6.160888671875,0.31402587890625,2042857.1428571427,113582857.14285712,46955091.57509157,62.874775,1.0,1.0,1.0,1.0,1.0,20.0,,0 days 00:00:00
2023-11-09 13:55:51.008,1.137337,0.45027512,0.45190126,0.6455952,1.014862,0.5434882,-0.01493185,0.059430175,1.2291396,0.29759237,0.09150629,0.39835662,1.0451404,0.5137811,0.019803433,0.7734131,0.7680952,0.08488366,0.020041369,0.78352773,789.7436,803.44324,815.5311,792.1612,813.1135,100.0,100.0,-0.01434326171875,0.0418701171875,1.0211181640625,3.985137939453125,-6.160888671875,0.31402587890625,2042857.1428571427,113582857.14285712,46955091.57509157,62.874775,1.0,1.0,1.0,1.0,1.0,20.0,,0 days 00:00:00.001000
2023-11-09 13:55:51.008,1.137337,0.45027512,0.45190126,0.6455952,1.014862,0.5434882,-0.01493185,0.059430175,1.2291396,0.29759237,0.09150629,0.39835662,1.0451404,0.5137811,0.019803433,0.7734131,0.7680952,0.08488366,0.020041369,0.78352773,786.9231,800.2198,821.978,797.3993,737.76556,100.0,100.0,-0.01434326171875,0.0418701171875,1.0211181640625,3.985137939453125,-6.160888671875,0.31402587890625,2042857.1428571427,113582857.14285712,46955091.57509157,62.874775,1.0,1.0,1.0,1.0,1.0,20.0,,0 days 00:00:00
2023-11-09 13:55:51.009,1.137337,0.45027512,0.45190126,0.6455952,1.014862,0.5434882,-0.01493185,0.059430175,1.2291396,0.29759237,0.09150629,0.39835662,1.0451404,0.5137811,0.019803433,0.7734131,0.7680952,0.08488366,0.020041369,0.78352773,792.96704,815.12823,807.47253,799.41394,773.22345,100.0,100.0,-0.01434326171875,0.0418701171875,1.0211181640625,3.985137939453125,-6.160888671875,0.31402587890625,2042857.1428571427,113582857.14285712,46955091.57509157,62.874775,1.0,1.0,1.0,1.0,1.0,20.0,,0 days 00:00:00.001000
2023-11-09 13:55:51.009,1.137337,0.45027512,0.45190126,0.6455952,1.014862,0.5434882,-0.01493185,0.059430175,1.2291396,0.29759237,0.09150629,0.39835662,1.0451404,0.5137811,0.019803433,0.7734131,0.7680952,0.08488366,0.020041369,0.78352773,803.44324,816.7399,804.65204,826.4103,979.92676,100.0,100.0,-0.01434326171875,0.0418701171875,1.0211181640625,3.985137939453125,-6.160888671875,0.31402587890625,2042857.1428571427,113582857.14285712,46955091.57509157,62.874775,1.0,1.0,1.0,1.0,1.0,20.0,,0 days 00:00:00
2023-11-09 13:55:51.010,1.137337,0.45027512,0.45190126,0.6455952,1.014862,0.5434882,-0.01493185,0.059430175,1.2291396,0.29759237,0.09150629,0.39835662,1.0451404,0.5137811,0.019803433,0.7734131,0.7680952,0.08488366,0.020041369,0.78352773,788.93774,801.8315,802.6374,808.68134,916.26373,100.0,100.0,-0.01434326171875,0.0418701171875,1.0211181640625,3.985137939453125,-6.160888671875,0.31402587890625,2042857.1428571427,113582857.14285712,46955091.57509157,62.874775,1.0,1.0,1.0,1.0,1.0,20.0,,0 days 00:00:00.001000
2023-11-09 13:55:51.010,1.137337,0.45027512,0.45190126,0.6455952,1.014862,0.5434882,-0.01493185,0.059430175,1.2291396,0.29759237,0.09150629,0.39835662,1.0451404,0.5137811,0.019803433,0.7734131,0.7680952,0.08488366,0.020041369,0.78352773,784.10254,794.57874,799.011,776.04395,716.0073,100.0,100.0,-0.01434326171875,0.0418701171875,1.0211181640625,3.985137939453125,-6.160888671875,0.31402587890625,2042857.1428571427,113582857.14285712,46955091.57509157,62.874775,1.0,1.0,1.0,1.0,1.0,20.0,,0 days 00:00:00
2023-11-09 13:55:51.038,1.137337,0.45027512,0.45190126,0.6455952,1.014862,0.5434882,-0.01493185,0.059430175,1.2291396,0.29759237,0.09150629,0.39835662,1.0451404,0.5137811,0.019803433,0.7734131,0.7680952,0.08488366,0.020041369,0.78352773,801.02563,802.23444,809.0842,798.20514,780.07324,100.0,100.0,-0.02557373046875,0.03717041015625,0.99847412109375,1.98883056640625,-4.658050537109375,1.816864013671875,2033186.8131868131,113669084.24908423,46967985.34798535,62.94062,1.0,1.0,1.0,1.0,1.0,20.0,,0 days 00:00:00.028000
2023-11-09 13:55:51.038,1.137337,0.45027512,0.45190126,0.6455952,1.014862,0.5434882,-0.01493185,0.059430175,1.2291396,0.29759237,0.09150629,0.39835662,1.0451404,0.5137811,0.019803433,0.7734131,0.7680952,0.08488366,0.020041369,0.78352773,788.1319,800.2198,809.4872,782.8938,760.7326,100.0,100.0,-0.02557373046875,0.03717041015625,0.99847412109375,1.98883056640625,-4.658050537109375,1.816864013671875,2033186.8131868131,113669084.24908423,46967985.34798535,62.94062,1.0,1.0,1.0,1.0,1.0,20.0,,0 days 00:00:00
2023-11-09 13:55:51.039,1.137337,0.45027512,0.45190126,0.6455952,1.014862,0.5434882,-0.01493185,0.059430175,1.2291396,0.29759237,0.09150629,0.39835662,1.0451404,0.5137811,0.019803433,0.7734131,0.7680952,0.08488366,0.020041369,0.78352773,770.0,796.99634,809.89014,770.80585,714.3956,100.0,100.0,-0.02557373046875,0.03717041015625,0.99847412109375,1.98883056640625,-4.658050537109375,1.816864013671875,2033186.8131868131,113669084.24908423,46967985.34798535,62.94062,1.0,1.0,1.0,1.0,1.0,20.0,,0 days 00:00:00.001000
2023-11-09 13:55:51.039,1.137337,0.45027512,0.45190126,0.6455952,1.014862,0.5434882,-0.01493185,0.059430175,1.2291396,0.29759237,0.09150629,0.39835662,1.0451404,0.5137811,0.019803433,0.7734131,0.7680952,0.08488366,0.020041369,0.78352773,781.685,796.99634,799.41394,785.31134,730.5128,100.0,100.0,-0.02557373046875,0.03717041015625,0.99847412109375,1.98883056640625,-4.658050537109375,1.816864013671875,2033186.8131868131,113669084.24908423,46967985.34798535,62.94062,1.0,1.0,1.0,1.0,1.0,20.0,,0 days 00:00:00
2023-11-09 13:55:51.040,1.137337,0.45027512,0.45190126,0.6455952,1.014862,0.5434882,-0.01493185,0.059430175,1.2291396,0.29759237,0.09150629,0.39835662,1.0451404,0.5137811,0.019803433,0.7734131,0.7680952,0.08488366,0.020041369,0.78352773,769.59705,802.23444,788.1319,792.5641,727.6923,100.0,100.0,-0.02557373046875,0.03717041015625,0.99847412109375,1.98883056640625,-4.658050537109375,1.816864013671875,2033186.8131868131,113669084.24908423,46967985.34798535,62.94062,1.0,1.0,1.0,1.0,1.0,20.0,,0 days 00:00:00.001000
2023-11-09 13:55:51.040,1.137337,0.45027512,0.45190126,0.6455952,1.014862,0.5434882,-0.01493185,0.059430175,1.2291396,0.29759237,0.09150629,0.39835662,1.0451404,0.5137811,0.019803433,0.7734131,0.7680952,0.08488366,0.020041369,0.78352773,753.47986,803.0403,805.05493,805.8608,749.45056,100.0,100.0,-0.02557373046875,0.03717041015625,0.99847412109375,1.98883056640625,-4.658050537109375,1.816864013671875,2033186.8131868131,113669084.24908423,46967985.34798535,62.94062,1.0,1.0,1.0,1.0,1.0,20.0,,0 days 00:00:00
2023-11-09 13:55:51.041,1.137337,0.45027512,0.45190126,0.6455952,1.014862,0.5434882,-0.01493185,0.059430175,1.2291396,0.29759237,0.09150629,0.39835662,1.0451404,0.5137811,0.019803433,0.7734131,0.7680952,0.08488366,0.020041369,0.78352773,770.40295,790.54944,815.5311,807.47253,787.326,100.0,100.0,-0.02557373046875,0.03717041015625,0.99847412109375,1.98883056640625,-4.658050537109375,1.816864013671875,2033186.8131868131,113669084.24908423,46967985.34798535,62.94062,1.0,1.0,1.0,1.0,1.0,20.0,,0 days 00:00:00.001000
2023-11-09 13:55:51.041,1.137337,0.45027512,0.45190126,0.6455952,1.014862,0.5434882,-0.01493185,0.059430175,1.2291396,0.29759237,0.09150629,0.39835662,1.0451404,0.5137811,0.019803433,0.7734131,0.7680952,0.08488366,0.020041369,0.78352773,782.0879,801.4286,813.91943,783.2967,755.89746,100.0,100.0,-0.02557373046875,0.03717041015625,0.99847412109375,1.98883056640625,-4.658050537109375,1.816864013671875,2033186.8131868131,113669084.24908423,46967985.34798535,62.94062,1.0,1.0,1.0,1.0,1.0,20.0,,0 days 00:00:00
2023-11-09 13:55:51.041,1.137337,0.45027512,0.45190126,0.6455952,1.014862,0.5434882,-0.01493185,0.059430175,1.2291396,0.29759237,0.09150629,0.39835662,1.0451404,0.5137811,0.019803433,0.7734131,0.7680952,0.08488366,0.020041369,0.78352773,800.2198,814.3223,815.5311,780.07324,838.49817,100.0,100.0,-0.02557373046875,0.03717041015625,0.99847412109375,1.98883056640625,-4.658050537109375,1.816864013671875,2033186.8131868131,113669084.24908423,46967985.34798535,62.94062,1.0,1.0,1.0,1.0,1.0,20.0,,0 days 00:00:00
2023-11-09 13:55:51.042,1.137337,0.45027512,0.45190126,0.6455952,1.014862,0.5434882,-0.01493185,0.059430175,1.2291396,0.29759237,0.09150629,0.39835662,1.0451404,0.5137811,0.019803433,0.7734131,0.7680952,0.08488366,0.020041369,0.78352773,801.4286,816.7399,814.3223,788.93774,906.99634,100.0,100.0,-0.02557373046875,0.03717041015625,0.99847412109375,1.98883056640625,-4.658050537109375,1.816864013671875,2033186.8131868131,113669084.24908423,46967985.34798535,62.94062,1.0,1.0,1.0,1.0,1.0,20.0,,0 days 00:00:00.001000
2023-11-09 13:55:51.043,1.137337,0.45027512,0.45190126,0.6455952,1.014862,0.5434882,-0.01493185,0.059430175,1.2291396,0.29759237,0.09150629,0.39835662,1.0451404,0.5137811,0.019803433,0.7734131,0.7680952,0.08488366,0.020041369,0.78352773,791.75824,811.9048,802.6374,770.0,753.47986,100.0,100.0,-0.02557373046875,0.03717041015625,0.99847412109375,1.98883056640625,-4.658050537109375,1.816864013671875,2033186.8131868131,113669084.24908423,46967985.34798535,62.94062,1.0,1.0,1.0,1.0,1.0,20.0,,0 days 00:00:00.001000
2023-11-09 13:55:51.043,1.137337,0.45027512,0.45190126,0.6455952,1.014862,0.5434882,-0.01493185,0.059430175,1.2291396,0.29759237,0.09150629,0.39835662,1.0451404,0.5137811,0.019803433,0.7734131,0.7680952,0.08488366,0.020041369,0.78352773,786.52014,799.011,800.2198,776.4469,776.04395,100.0,100.0,-0.02557373046875,0.03717041015625,0.99847412109375,1.98883056640625,-4.658050537109375,1.816864013671875,2033186.8131868131,113669084.24908423,46967985.34798535,62.94062,1.0,1.0,1.0,1.0,1.0,20.0,,0 days 00:00:00
2023-11-09 13:55:51.067,1.137337,0.45027512,0.45190126,0.6455952,1.014862,0.5434882,-0.01493185,0.059430175,1.2291396,0.29759237,0.09150629,0.39835662,1.0451404,0.5137811,0.019803433,0.7734131,0.7680952,0.08488366,0.020041369,0.78352773,787.72894,796.99634,804.65204,809.4872,922.3077,100.0,100.0,-0.0313720703125,0.03729248046875,0.9970703125,2.6617431640625,-3.237457275390625,0.770111083984375,2033186.8131868131,113669084.24908423,46967985.34798535,62.94062,1.0,1.0,1.0,1.0,1.0,20.0,,0 days 00:00:00.024000
2023-11-09 13:55:51.068,1.137337,0.45027512,0.45190126,0.6455952,1.014862,0.5434882,-0.01493185,0.059430175,1.2291396,0.29759237,0.09150629,0.39835662,1.0451404,0.5137811,0.019803433,0.7734131,0.7680952,0.08488366,0.020041369,0.78352773,805.4579,802.6374,802.6374,803.0403,898.1319,100.0,100.0,-0.0313720703125,0.03729248046875,0.9970703125,2.6617431640625,-3.237457275390625,0.770111083984375,2033186.8131868131,113669084.24908423,46967985.34798535,62.94062,1.0,1.0,1.0,1.0,1.0,20.0,,0 days 00:00:00.001000
2023-11-09 13:55:51.068,1.137337,0.45027512,0.45190126,0.6455952,1.014862,0.5434882,-0.01493185,0.059430175,1.2291396,0.29759237,0.09150629,0.39835662,1.0451404,0.5137811,0.019803433,0.7734131,0.7680952,0.08488366,0.020041369,0.78352773,788.5348,801.8315,798.20514,809.89014,800.6227,100.0,100.0,-0.0313720703125,0.03729248046875,0.9970703125,2.6617431640625,-3.237457275390625,0.770111083984375,2033186.8131868131,113669084.24908423,46967985.34798535,62.94062,1.0,1.0,1.0,1.0,1.0,20.0,,0 days 00:00:00
2023-11-09 13:55:51.069,1.137337,0.45027512,0.45190126,0.6455952,1.014862,0.5434882,-0.01493185,0.059430175,1.2291396,0.29759237,0.09150629,0.39835662,1.0451404,0.5137811,0.019803433,0.7734131,0.7680952,0.08488366,0.020041369,0.78352773,775.2381,806.6667,804.65204,794.57874,753.47986,100.0,100.0,-0.0313720703125,0.03729248046875,0.9970703125,2.6617431640625,-3.237457275390625,0.770111083984375,2033186.8131868131,113669084.24908423,46967985.34798535,62.94062,1.0,1.0,1.0,1.0,1.0,20.0,,0 days 00:00:00.001000
2023-11-09 13:55:51.069,1.137337,0.45027512,0.45190126,0.6455952,1.014862,0.5434882,-0.01493185,0.059430175,1.2291396,0.29759237,0.09150629,0.39835662,1.0451404,0.5137811,0.019803433,0.7734131,0.7680952,0.08488366,0.020041369,0.78352773,786.9231,812.71063,806.6667,782.49084,916.6667,100.0,100.0,-0.0313720703125,0.03729248046875,0.9970703125,2.6617431640625,-3.237457275390625,0.770111083984375,2033186.8131868131,113669084.24908423,46967985.34798535,62.94062,1.0,1.0,1.0,1.0,1.0,20.0,,0 days 00:00:00
2023-11-09 13:55:51.070,1.137337,0.45027512,0.45190126,0.6455952,1.014862,0.5434882,-0.01493185,0.059430175,1.2291396,0.29759237,0.09150629,0.39835662,1.0451404,0.5137811,0.019803433,0.7734131,0.7680952,0.08488366,0.020041369,0.78352773,794.17584,804.65204,804.65204,794.9817,900.14655,100.0,100.0,-0.0313720703125,0.03729248046875,0.9970703125,2.6617431640625,-3.237457275390625,0.770111083984375,2033186.8131868131,113669084.24908423,46967985.34798535,62.94062,1.0,1.0,1.0,1.0,1.0,20.0,,0 days 00:00:00.001000
2023-11-09 13:55:51.070,1.137337,0.45027512,0.45190126,0.6455952,1.014862,0.5434882,-0.01493185,0.059430175,1.2291396,0.29759237,0.09150629,0.39835662,1.0451404,0.5137811,0.019803433,0.7734131,0.7680952,0.08488366,0.020041369,0.78352773,794.9817,795.38464,807.0696,809.0842,761.9414,100.0,100.0,-0.0313720703125,0.03729248046875,0.9970703125,2.6617431640625,-3.237457275390625,0.770111083984375,2033186.8131868131,113669084.24908423,46967985.34798535,62.94062,1.0,1.0,1.0,1.0,1.0,20.0,,0 days 00:00:00
2023-11-09 13:55:51.070,1.137337,0.45027512,0.45190126,0.6455952,1.014862,0.5434882,-0.01493185,0.059430175,1.2291396,0.29759237,0.09150629,0.39835662,1.0451404,0.5137811,0.019803433,0.7734131,0.7680952,0.08488366,0.020041369,0.78352773,790.14655,800.6227,794.17584,815.9341,817.1429,100.0,100.0,-0.0313720703125,0.03729248046875,0.9970703125,2.6617431640625,-3.237457275390625,0.770111083984375,2033186.8131868131,113669084.24908423,46967985.34798535,62.94062,1.0,1.0,1.0,1.0,1.0,20.0,,0 days 00:00:00
2023-11-09 13:55:51.071,1.137337,0.45027512,0.45190126,0.6455952,1.014862,0.5434882,-0.01493185,0.059430175,1.2291396,0.29759237,0.09150629,0.39835662,1.0451404,0.5137811,0.019803433,0.7734131,0.7680952,0.08488366,0.020041369,0.78352773,787.72894,806.26373,803.0403,803.0403,900.54944,100.0,100.0,-0.0313720703125,0.03729248046875,0.9970703125,2.6617431640625,-3.237457275390625,0.770111083984375,2033186.8131868131,113669084.24908423,46967985.34798535,62.94062,1.0,1.0,1.0,1.0,1.0,20.0,,0 days 00:00:00.001000
2023-11-09 13:55:51.071,1.137337,0.45027512,0.45190126,0.6455952,1.014862,0.5434882,-0.01493185,0.059430175,1.2291396,0.29759237,0.09150629,0.39835662,1.0451404,0.5137811,0.019803433,0.7734131,0.7680952,0.08488366,0.020041369,0.78352773,776.8498,805.4579,811.9048,790.54944,777.25275,100.0,100.0,-0.0313720703125,0.03729248046875,0.9970703125,2.6617431640625,-3.237457275390625,0.770111083984375,2033186.8131868131,113669084.24908423,46967985.34798535,62.94062,1.0,1.0,1.0,1.0,1.0,20.0,,0 days 00:00:00
2023-11-09 13:55:51.071,1.137337,0.45027512,0.45190126,0.6455952,1.014862,0.5434882,-0.01493185,0.059430175,1.2291396,0.29759237,0.09150629,0.39835662,1.0451404,0.5137811,0.019803433,0.7734131,0.7680952,0.08488366,0.020041369,0.78352773,779.67035,808.68134,809.89014,793.7729,680.9524,100.0,100.0,-0.0313720703125,0.03729248046875,0.9970703125,2.6617431640625,-3.237457275390625,0.770111083984375,2033186.8131868131,113669084.24908423,46967985.34798535,62.94062,1.0,1.0,1.0,1.0,1.0,20.0,,0 days 00:00:00
2023-11-09 13:55:51.072,1.137337,0.45027512,0.45190126,0.6455952,1.014862,0.5434882,-0.01493185,0.059430175,1.2291396,0.29759237,0.09150629,0.39835662,1.0451404,0.5137811,0.019803433,0.7734131,0.7680952,0.08488366,0.020041369,0.78352773,768.7912,811.0989,813.1135,813.5165,780.4762,100.0,100.0,-0.0313720703125,0.03729248046875,0.9970703125,2.6617431640625,-3.237457275390625,0.770111083984375,2033186.8131868131,113669084.24908423,46967985.34798535,62.94062,1.0,1.0,1.0,1.0,1.0,20.0,,0 days 00:00:00.001000
2023-11-09 13:55:51.133,1.137337,0.45027512,0.45190126,0.6455952,1.014862,0.5434882,-0.01493185,0.059430175,1.2291396,0.29759237,0.09150629,0.39835662,1.0451404,0.5137811,0.019803433,0.7734131,0.7680952,0.08488366,0.020041369,0.78352773,755.09155,805.8608,812.71063,815.9341,933.1868,100.0,100.0,-0.0313720703125,0.03729248046875,0.9970703125,2.6617431640625,-3.237457275390625,0.770111083984375,2030769.2307692308,113707765.56776556,46999413.91941392,63.002617,1.0,1.0,1.0,1.0,1.0,20.0,,0 days 00:00:00.061000
2023-11-09 13:55:51.134,1.137337,0.45027512,0.45190126,0.6455952,1.014862,0.5434882,-0.01493185,0.059430175,1.2291396,0.29759237,0.09150629,0.39835662,1.0451404,0.5137811,0.019803433,0.7734131,0.7680952,0.08488366,0.020041369,0.78352773,760.7326,801.4286,812.71063,811.0989,775.64105,100.0,100.0,-0.0313720703125,0.03729248046875,0.9970703125,2.6617431640625,-3.237457275390625,0.770111083984375,2030769.2307692308,113707765.56776556,46999413.91941392,63.002617,1.0,1.0,1.0,1.0,1.0,20.0,,0 days 00:00:00.001000
2023-11-09 13:55:51.135,1.137337,0.45027512,0.45190126,0.6455952,1.014862,0.5434882,-0.01493185,0.059430175,1.2291396,0.29759237,0.09150629,0.39835662,1.0451404,0.5137811,0.019803433,0.7734131,0.7680952,0.08488366,0.020041369,0.78352773,770.80585,803.44324,809.0842,819.15753,674.10254,100.0,100.0,-0.0313720703125,0.03729248046875,0.9970703125,2.6617431640625,-3.237457275390625,0.770111083984375,2030769.2307692308,113707765.56776556,46999413.91941392,63.002617,1.0,1.0,1.0,1.0,1.0,20.0,,0 days 00:00:00.001000
2023-11-09 13:55:51.135,1.137337,0.45027512,0.45190126,0.6455952,1.014862,0.5434882,-0.01493185,0.059430175,1.2291396,0.29759237,0.09150629,0.39835662,1.0451404,0.5137811,0.019803433,0.7734131,0.7680952,0.08488366,0.020041369,0.78352773,780.87915,811.50183,807.47253,797.3993,786.1172,100.0,100.0,-0.0313720703125,0.03729248046875,0.9970703125,2.6617431640625,-3.237457275390625,0.770111083984375,2030769.2307692308,113707765.56776556,46999413.91941392,63.002617,1.0,1.0,1.0,1.0,1.0,20.0,,0 days 00:00:00
2023-11-09 13:55:51.135,1.137337,0.45027512,0.45190126,0.6455952,1.014862,0.5434882,-0.01493185,0.059430175,1.2291396,0.29759237,0.09150629,0.39835662,1.0451404,0.5137811,0.019803433,0.7734131,0.7680952,0.08488366,0.020041369,0.78352773,761.53845,805.05493,803.44324,772.01465,823.1868,100.0,100.0,-0.0313720703125,0.03729248046875,0.9970703125,2.6617431640625,-3.237457275390625,0.770111083984375,2030769.2307692308,113707765.56776556,46999413.91941392,63.002617,1.0,1.0,1.0,1.0,1.0,20.0,,0 days 00:00:00
2023-11-09 13:55:51.136,1.137337,0.45027512,0.45190126,0.6455952,1.014862,0.5434882,-0.01493185,0.059430175,1.2291396,0.29759237,0.09150629,0.39835662,1.0451404,0.5137811,0.019803433,0.7734131,0.7680952,0.08488366,0.020041369,0.78352773,769.19415,804.2491,806.6667,778.46155,804.2491,100.0,100.0,-0.0313720703125,0.03729248046875,0.9970703125,2.6617431640625,-3.237457275390625,0.770111083984375,2030769.2307692308,113707765.56776556,46999413.91941392,63.002617,1.0,1.0,1.0,1.0,1.0,20.0,,0 days 00:00:00.001000
2023-11-09 13:55:51.136,1.137337,0.45027512,0.45190126,0.6455952,1.014862,0.5434882,-0.01493185,0.059430175,1.2291396,0.29759237,0.09150629,0.39835662,1.0451404,0.5137811,0.019803433,0.7734131,0.7680952,0.08488366,0.020041369,0.78352773,767.1795,806.6667,813.5165,791.75824,816.7399,100.0,100.0,-0.0313720703125,0.03729248046875,0.9970703125,2.6617431640625,-3.237457275390625,0.770111083984375,2030769.2307692308,113707765.56776556,46999413.91941392,63.002617,1.0,1.0,1.0,1.0,1.0,20.0,,0 days 00:00:00
2023-11-09 13:55:51.137,1.137337,0.45027512,0.45190126,0.6455952,1.014862,0.5434882,-0.01493185,0.059430175,1.2291396,0.29759237,0.09150629,0.39835662,1.0451404,0.5137811,0.019803433,0.7734131,0.7680952,0.08488366,0.020041369,0.78352773,763.5531,795.38464,810.696,809.0842,912.6374,100.0,100.0,-0.0313720703125,0.03729248046875,0.9970703125,2.6617431640625,-3.237457275390625,0.770111083984375,2030769.2307692308,113707765.56776556,46999413.91941392,63.002617,1.0,1.0,1.0,1.0,1.0,20.0,,0 days 00:00:00.001000
2023-11-09 13:55:51.137,1.137337,0.45027512,0.45190126,0.6455952,1.014862,0.5434882,-0.01493185,0.059430175,1.2291396,0.29759237,0.09150629,0.39835662,1.0451404,0.5137811,0.019803433,0.7734131,0.7680952,0.08488366,0.020041369,0.78352773,769.59705,802.6374,813.1135,811.9048,982.3443,100.0,100.0,-0.0313720703125,0.03729248046875,0.9970703125,2.6617431640625,-3.237457275390625,0.770111083984375,2030769.2307692308,113707765.56776556,46999413.91941392,63.002617,1.0,1.0,1.0,1.0,1.0,20.0,,0 days 00:00:00
2023-11-09 13:55:51.138,1.137337,0.45027512,0.45190126,0.6455952,1.014862,0.5434882,-0.01493185,0.059430175,1.2291396,0.29759237,0.09150629,0.39835662,1.0451404,0.5137811,0.019803433,0.7734131,0.7680952,0.08488366,0.020041369,0.78352773,756.30035,809.0842,807.8755,798.60803,755.4945,100.0,100.0,-0.0313720703125,0.03729248046875,0.9970703125,2.6617431640625,-3.237457275390625,0.770111083984375,2030769.2307692308,113707765.56776556,46999413.91941392,63.002617,1.0,1.0,1.0,1.0,1.0,20.0,,0 days 00:00:00.001000
2023-11-09 13:55:51.138,1.137337,0.45027512,0.45190126,0.6455952,1.014862,0.5434882,-0.01493185,0.059430175,1.2291396,0.29759237,0.09150629,0.39835662,1.0451404,0.5137811,0.019803433,0.7734131,0.7680952,0.08488366,0.020041369,0.78352773,766.3736,811.50183,793.36993,803.44324,693.8461,100.0,100.0,-0.0313720703125,0.03729248046875,0.9970703125,2.6617431640625,-3.237457275390625,0.770111083984375,2030769.2307692308,113707765.56776556,46999413.91941392,63.002617,1.0,1.0,1.0,1.0,1.0,20.0,,0 days 00:00:00
2023-11-09 13:55:51.138,1.137337,0.45027512,0.45190126,0.6455952,1.014862,0.5434882,-0.01493185,0.059430175,1.2291396,0.29759237,0.09150629,0.39835662,1.0451404,0.5137811,0.019803433,0.7734131,0.7680952,0.08488366,0.020041369,0.78352773,776.8498,808.68134,802.23444,784.5055,817.1429,100.0,100.0,-0.0313720703125,0.03729248046875,0.9970703125,2.6617431640625,-3.237457275390625,0.770111083984375,2030769.2307692308,113707765.56776556,46999413.91941392,63.002617,1.0,1.0,1.0,1.0,1.0,20.0,,0 days 00:00:00
2023-11-09 13:55:51.165,1.137337,0.45027512,0.45190126,0.6455952,1.014862,0.5434882,-0.01493185,0.059430175,1.2291396,0.29759237,0.09150629,0.39835662,1.0451404,0.5137811,0.019803433,0.7734131,0.7680952,0.08488366,0.020041369,0.78352773,773.6264,804.65204,810.696,773.22345,796.99634,100.0,100.0,-0.030517578125,0.03643798828125,1.0025634765625,2.370147705078125,-1.57012939453125,-1.263580322265625,2030769.2307692308,113707765.56776556,46999413.91941392,63.002617,1.0,1.0,1.0,1.0,1.0,20.0,,0 days 00:00:00.027000
2023-11-09 13:55:51.165,1.137337,0.45027512,0.45190126,0.6455952,1.014862,0.5434882,-0.01493185,0.059430175,1.2291396,0.29759237,0.09150629,0.39835662,1.0451404,0.5137811,0.019803433,0.7734131,0.7680952,0.08488366,0.020041369,0.78352773,772.01465,806.6667,804.2491,780.07324,730.10986,100.0,100.0,-0.030517578125,0.03643798828125,1.0025634765625,2.370147705078125,-1.57012939453125,-1.263580322265625,2030769.2307692308,113707765.56776556,46999413.91941392,63.002617,1.0,1.0,1.0,1.0,1.0,20.0,,0 days 00:00:00
2023-11-09 13:55:51.166,1.137337,0.45027512,0.45190126,0.6455952,1.014862,0.5434882,-0.01493185,0.059430175,1.2291396,0.29759237,0.09150629,0.39835662,1.0451404,0.5137811,0.019803433,0.7734131,0.7680952,0.08488366,0.020041369,0.78352773,772.8205,804.65204,811.50183,782.8938,733.73627,100.0,100.0,-0.030517578125,0.03643798828125,1.0025634765625,2.370147705078125,-1.57012939453125,-1.263580322265625,2030769.2307692308,113707765.56776556,46999413.91941392,63.002617,1.0,1.0,1.0,1.0,1.0,20.0,,0 days 00:00:00.001000
2023-11-09 13:55:51.166,1.137337,0.45027512,0.45190126,0.6455952,1.014862,0.5434882,-0.01493185,0.059430175,1.2291396,0.29759237,0.09150629,0.39835662,1.0451404,0.5137811,0.019803433,0.7734131,0.7680952,0.08488366,0.020041369,0.78352773,777.25275,802.23444,811.9048,798.20514,856.63007,100.0,100.0,-0.030517578125,0.03643798828125,1.0025634765625,2.370147705078125,-1.57012939453125,-1.263580322265625,2030769.2307692308,113707765.56776556,46999413.91941392,63.002617,1.0,1.0,1.0,1.0,1.0,20.0,,0 days 00:00:00
2023-11-09 13:55:51.166,1.137337,0.45027512,0.45190126,0.6455952,1.014862,0.5434882,-0.01493185,0.059430175,1.2291396,0.29759237,0.09150629,0.39835662,1.0451404,0.5137811,0.019803433,0.7734131,0.7680952,0.08488366,0.020041369,0.78352773,772.4176,800.6227,797.8022,795.38464,842.1245,100.0,100.0,-0.030517578125,0.03643798828125,1.0025634765625,2.370147705078125,-1.57012939453125,-1.263580322265625,2030769.2307692308,113707765.56776556,46999413.91941392,63.002617,1.0,1.0,1.0,1.0,1.0,20.0,,0 days 00:00:00
2023-11-09 13:55:51.166,1.137337,0.45027512,0.45190126,0.6455952,1.014862,0.5434882,-0.01493185,0.059430175,1.2291396,0.29759237,0.09150629,0.39835662,1.0451404,0.5137811,0.019803433,0.7734131,0.7680952,0.08488366,0.020041369,0.78352773,780.4762,809.89014,804.2491,792.96704,799.41394,100.0,100.0,-0.030517578125,0.03643798828125,1.0025634765625,2.370147705078125,-1.57012939453125,-1.263580322265625,2030769.2307692308,113707765.56776556,46999413.91941392,63.002617,1.0,1.0,1.0,1.0,1.0,20.0,,0 days 00:00:00
2023-11-09 13:55:51.167,1.137337,0.45027512,0.45190126,0.6455952,1.014862,0.5434882,-0.01493185,0.059430175,1.2291396,0.29759237,0.09150629,0.39835662,1.0451404,0.5137811,0.019803433,0.7734131,0.7680952,0.08488366,0.020041369,0.78352773,773.22345,811.9048,811.50183,807.0696,812.3077,100.0,100.0,-0.030517578125,0.03643798828125,1.0025634765625,2.370147705078125,-1.57012939453125,-1.263580322265625,2030769.2307692308,113707765.56776556,46999413.91941392,63.002617,1.0,1.0,1.0,1.0,1.0,20.0,,0 days 00:00:00.001000
2023-11-09 13:55:51.167,1.137337,0.45027512,0.45190126,0.6455952,1.014862,0.5434882,-0.01493185,0.059430175,1.2291396,0.29759237,0.09150629,0.39835662,1.0451404,0.5137811,0.019803433,0.7734131,0.7680952,0.08488366,0.020041369,0.78352773,782.0879,798.20514,812.3077,822.381,1039.5604,100.0,100.0,-0.030517578125,0.03643798828125,1.0025634765625,2.370147705078125,-1.57012939453125,-1.263580322265625,2030769.2307692308,113707765.56776556,46999413.91941392,63.002617,1.0,1.0,1.0,1.0,1.0,20.0,,0 days 00:00:00
2023-11-09 13:55:51.167,1.137337,0.45027512,0.45190126,0.6455952,1.014862,0.5434882,-0.01493185,0.059430175,1.2291396,0.29759237,0.09150629,0.39835662,1.0451404,0.5137811,0.019803433,0.7734131,0.7680952,0.08488366,0.020041369,0.78352773,799.011,802.23444,815.12823,819.5604,1002.8938,100.0,100.0,-0.030517578125,0.03643798828125,1.0025634765625,2.370147705078125,-1.57012939453125,-1.263580322265625,2030769.2307692308,113707765.56776556,46999413.91941392,63.002617,1.0,1.0,1.0,1.0,1.0,20.0,,0 days 00:00:00
2023-11-09 13:55:51.167,1.137337,0.45027512,0.45190126,0.6455952,1.014862,0.5434882,-0.01493185,0.059430175,1.2291396,0.29759237,0.09150629,0.39835662,1.0451404,0.5137811,0.019803433,0.7734131,0.7680952,0.08488366,0.020041369,0.78352773,788.1319,817.5458,810.696,803.0403,794.9817,100.0,100.0,-0.030517578125,0.03643798828125,1.0025634765625,2.370147705078125,-1.57012939453125,-1.263580322265625,2030769.2307692308,113707765.56776556,46999413.91941392,63.002617,1.0,1.0,1.0,1.0,1.0,20.0,,0 days 00:00:00
2023-11-09 13:55:51.168,1.137337,0.45027512,0.45190126,0.6455952,1.014862,0.5434882,-0.01493185,0.059430175,1.2291396,0.29759237,0.09150629,0.39835662,1.0451404,0.5137811,0.019803433,0.7734131,0.7680952,0.08488366,0.020041369,0.78352773,786.52014,815.9341,800.6227,799.41394,744.21246,100.0,100.0,-0.030517578125,0.03643798828125,1.0025634765625,2.370147705078125,-1.57012939453125,-1.263580322265625,2030769.2307692308,113707765.56776556,46999413.91941392,63.002617,1.0,1.0,1.0,1.0,1.0,20.0,,0 days 00:00:00.001000
2023-11-09 13:55:51.168,1.137337,0.45027512,0.45190126,0.6455952,1.014862,0.5434882,-0.01493185,0.059430175,1.2291396,0.29759237,0.09150629,0.39835662,1.0451404,0.5137811,0.019803433,0.7734131,0.7680952,0.08488366,0.020041369,0.78352773,781.28204,813.1135,795.38464,799.81683,716.8132,100.0,100.0,-0.030517578125,0.03643798828125,1.0025634765625,2.370147705078125,-1.57012939453125,-1.263580322265625,2030769.2307692308,113707765.56776556,46999413.91941392,63.002617,1.0,1.0,1.0,1.0,1.0,20.0,,0 days 00:00:00
2023-11-09 13:55:51.234,1.137337,0.45027512,0.45190126,0.6455952,1.014862,0.5434882,-0.01493185,0.059430175,1.2291396,0.29759237,0.09150629,0.39835662,1.0451404,0.5137811,0.019803433,0.7734131,0.7680952,0.08488366,0.020041369,0.78352773,797.8022,817.9487,802.23444,795.38464,722.0513,100.0,100.0,-0.027587890625,0.04052734375,1.008544921875,2.160797119140625,-3.730926513671875,-1.09161376953125,2051721.6117216116,113782710.62271062,46990549.450549446,63.060986,1.0,1.0,1.0,1.0,1.0,20.0,,0 days 00:00:00.066000
2023-11-09 13:55:51.235,1.137337,0.45027512,0.45190126,0.6455952,1.014862,0.5434882,-0.01493185,0.059430175,1.2291396,0.29759237,0.09150629,0.39835662,1.0451404,0.5137811,0.019803433,0.7734131,0.7680952,0.08488366,0.020041369,0.78352773,779.67035,812.71063,811.50183,778.0586,710.7692,100.0,100.0,-0.027587890625,0.04052734375,1.008544921875,2.160797119140625,-3.730926513671875,-1.09161376953125,2051721.6117216116,113782710.62271062,46990549.450549446,63.060986,1.0,1.0,1.0,1.0,1.0,20.0,,0 days 00:00:00.001000
2023-11-09 13:55:51.235,1.137337,0.45027512,0.45190126,0.6455952,1.014862,0.5434882,-0.01493185,0.059430175,1.2291396,0.29759237,0.09150629,0.39835662,1.0451404,0.5137811,0.019803433,0.7734131,0.7680952,0.08488366,0.020041369,0.78352773,772.01465,813.91943,809.89014,779.2674,742.1978,100.0,100.0,-0.027587890625,0.04052734375,1.008544921875,2.160797119140625,-3.730926513671875,-1.09161376953125,2051721.6117216116,113782710.62271062,46990549.450549446,63.060986,1.0,1.0,1.0,1.0,1.0,20.0,,0 days 00:00:00
2023-11-09 13:55:51.236,1.137337,0.45027512,0.45190126,0.6455952,1.014862,0.5434882,-0.01493185,0.059430175,1.2291396,0.29759237,0.09150629,0.39835662,1.0451404,0.5137811,0.019803433,0.7734131,0.7680952,0.08488366,0.020041369,0.78352773,784.5055,814.3223,809.4872,792.5641,749.85345,100.0,100.0,-0.027587890625,0.04052734375,1.008544921875,2.160797119140625,-3.730926513671875,-1.09161376953125,2051721.6117216116,113782710.62271062,46990549.450549446,63.060986,1.0,1.0,1.0,1.0,1.0,20.0,,0 days 00:00:00.001000
2023-11-09 13:55:51.236,1.137337,0.45027512,0.45190126,0.6455952,1.014862,0.5434882,-0.01493185,0.059430175,1.2291396,0.29759237,0.09150629,0.39835662,1.0451404,0.5137811,0.019803433,0.7734131,0.7680952,0.08488366,0.020041369,0.78352773,768.7912,805.4579,811.0989,787.326,733.3333,100.0,100.0,-0.027587890625,0.04052734375,1.008544921875,2.160797119140625,-3.730926513671875,-1.09161376953125,2051721.6117216116,113782710.62271062,46990549.450549446,63.060986,1.0,1.0,1.0,1.0,1.0,20.0,,0 days 00:00:00
2023-11-09 13:55:51.237,1.137337,0.45027512,0.45190126,0.6455952,1.014862,0.5434882,-0.01493185,0.059430175,1.2291396,0.29759237,0.09150629,0.39835662,1.0451404,0.5137811,0.019803433,0.7734131,0.7680952,0.08488366,0.020041369,0.78352773,771.6117,807.0696,814.7253,794.57874,730.10986,100.0,100.0,-0.027587890625,0.04052734375,1.008544921875,2.160797119140625,-3.730926513671875,-1.09161376953125,2051721.6117216116,113782710.62271062,46990549.450549446,63.060986,1.0,1.0,1.0,1.0,1.0,20.0,,0 days 00:00:00.001000
2023-11-09 13:55:51.237,1.137337,0.45027512,0.45190126,0.6455952,1.014862,0.5434882,-0.01493185,0.059430175,1.2291396,0.29759237,0.09150629,0.39835662,1.0451404,0.5137811,0.019803433,0.7734131,0.7680952,0.08488366,0.020041369,0.78352773,787.326,809.0842,815.9341,805.4579,880.80585,100.0,100.0,-0.027587890625,0.04052734375,1.008544921875,2.160797119140625,-3.730926513671875,-1.09161376953125,2051721.6117216116,113782710.62271062,46990549.450549446,63.060986,1.0,1.0,1.0,1.0,1.0,20.0,,0 days 00:00:00
2023-11-09 13:55:51.238,1.137337,0.45027512,0.45190126,0.6455952,1.014862,0.5434882,-0.01493185,0.059430175,1.2291396,0.29759237,0.09150629,0.39835662,1.0451404,0.5137811,0.019803433,0.7734131,0.7680952,0.08488366,0.020041369,0.78352773,801.4286,812.71063,808.68134,802.6374,1091.9414,100.0,100.0,-0.027587890625,0.04052734375,1.008544921875,2.160797119140625,-3.730926513671875,-1.09161376953125,2051721.6117216116,113782710.62271062,46990549.450549446,63.060986,1.0,1.0,1.0,1.0,1.0,20.0,,0 days 00:00:00.001000
2023-11-09 13:55:51.238,1.137337,0.45027512,0.45190126,0.6455952,1.014862,0.5434882,-0.01493185,0.059430175,1.2291396,0.29759237,0.09150629,0.39835662,1.0451404,0.5137811,0.019803433,0.7734131,0.7680952,0.08488366,0.020041369,0.78352773,799.011,807.8755,808.2784,790.14655,867.50916,100.0,100.0,-0.027587890625,0.04052734375,1.008544921875,2.160797119140625,-3.730926513671875,-1.09161376953125,2051721.6117216116,113782710.62271062,46990549.450549446,63.060986,1.0,1.0,1.0,1.0,1.0,20.0,,0 days 00:00:00
2023-11-09 13:55:51.239,1.137337,0.45027512,0.45190126,0.6455952,1.014862,0.5434882,-0.01493185,0.059430175,1.2291396,0.29759237,0.09150629,0.39835662,1.0451404,0.5137811,0.019803433,0.7734131,0.7680952,0.08488366,0.020041369,0.78352773,780.07324,794.9817,803.0403,796.1905,767.5824,100.0,100.0,-0.027587890625,0.04052734375,1.008544921875,2.160797119140625,-3.730926513671875,-1.09161376953125,2051721.6117216116,113782710.62271062,46990549.450549446,63.060986,1.0,1.0,1.0,1.0,1.0,20.0,,0 days 00:00:00.001000
2023-11-09 13:55:51.239,1.137337,0.45027512,0.45190126,0.6455952,1.014862,0.5434882,-0.01493185,0.059430175,1.2291396,0.29759237,0.09150629,0.39835662,1.0451404,0.5137811,0.019803433,0.7734131,0.7680952,0.08488366,0.020041369,0.78352773,765.56775,801.4286,804.65204,799.41394,882.4176,100.0,100.0,-0.027587890625,0.04052734375,1.008544921875,2.160797119140625,-3.730926513671875,-1.09161376953125,2051721.6117216116,113782710.62271062,46990549.450549446,63.060986,1.0,1.0,1.0,1.0,1.0,20.0,,0 days 00:00:00
2023-11-09 13:55:51.240,1.137337,0.45027512,0.45190126,0.6455952,1.014862,0.5434882,-0.01493185,0.059430175,1.2291396,0.29759237,0.09150629,0.39835662,1.0451404,0.5137811,0.019803433,0.7734131,0.7680952,0.08488366,0.020041369,0.78352773,774.0293,806.6667,806.6667,790.54944,833.663,100.0,100.0,-0.027587890625,0.04052734375,1.008544921875,2.160797119140625,-3.730926513671875,-1.09161376953125,2051721.6117216116,113782710.62271062,46990549.450549446,63.060986,1.0,1.0,1.0,1.0,1.0,20.0,,0 days 00:00:00.001000
2023-11-09 13:55:51.264,1.137337,0.45027512,0.45190126,0.6455952,1.014862,0.5434882,-0.01493185,0.059430175,1.2291396,0.29759237,0.09150629,0.39835662,1.0451404,0.5137811,0.019803433,0.7734131,0.7680952,0.08488366,0.020041369,0.78352773,805.05493,805.8608,801.02563,794.17584,753.8828,100.0,100.0,-0.0321044921875,0.03558349609375,1.003173828125,2.27294921875,-6.661834716796875,-1.368255615234375,2051721.6117216116,113782710.62271062,46990549.450549446,63.060986,1.0,1.0,1.0,1.0,1.0,20.0,,0 days 00:00:00.024000
2023-11-09 13:55:51.265,1.137337,-0.28461915,0.7662975,0.6455952,1.014862,-0.088866234,0.17911798,0.059430175,1.2291396,0.14225279,0.35115656,0.39835662,1.0451404,0.4471209,0.06894436,0.7734131,0.7680952,0.2796443,-0.20271936,0.78352773,799.011,810.696,811.0989,789.7436,751.4652,100.0,100.0,-0.0321044921875,0.03558349609375,1.003173828125,2.27294921875,-6.661834716796875,-1.368255615234375,2051721.6117216116,113782710.62271062,46990549.450549446,63.060986,1.0,1.0,1.0,1.0,1.0,20.0,,0 days 00:00:00.001000
2023-11-09 13:55:51.266,1.137337,-0.28461915,0.7662975,0.6455952,1.014862,-0.088866234,0.17911798,0.059430175,1.2291396,0.14225279,0.35115656,0.39835662,1.0451404,0.4471209,0.06894436,0.7734131,0.7680952,0.2796443,-0.20271936,0.78352773,776.04395,813.5165,817.1429,794.9817,898.93774,100.0,100.0,-0.0321044921875,0.03558349609375,1.003173828125,2.27294921875,-6.661834716796875,-1.368255615234375,2051721.6117216116,113782710.62271062,46990549.450549446,63.060986,1.0,1.0,1.0,1.0,1.0,20.0,,0 days 00:00:00.001000
2023-11-09 13:55:51.267,1.137337,-0.28461915,0.7662975,0.6455952,1.014862,-0.088866234,0.17911798,0.059430175,1.2291396,0.14225279,0.35115656,0.39835662,1.0451404,0.4471209,0.06894436,0.7734131,0.7680952,0.2796443,-0.20271936,0.78352773,773.22345,802.23444,814.3223,787.72894,844.5421,100.0,100.0,-0.0321044921875,0.03558349609375,1.003173828125,2.27294921875,-6.661834716796875,-1.368255615234375,2051721.6117216116,113782710.62271062,46990549.450549446,63.060986,1.0,1.0,1.0,1.0,1.0,20.0,,0 days 00:00:00.001000
2023-11-09 13:55:51.267,1.137337,-0.28461915,0.7662975,0.6455952,1.014862,-0.088866234,0.17911798,0.059430175,1.2291396,0.14225279,0.35115656,0.39835662,1.0451404,0.4471209,0.06894436,0.7734131,0.7680952,0.2796443,-0.20271936,0.78352773,789.7436,798.60803,810.696,786.52014,735.7509,100.0,100.0,-0.0321044921875,0.03558349609375,1.003173828125,2.27294921875,-6.661834716796875,-1.368255615234375,2051721.6117216116,113782710.62271062,46990549.450549446,63.060986,1.0,1.0,1.0,1.0,1.0,20.0,,0 days 00:00:00
2023-11-09 13:55:51.268,1.137337,-0.28461915,0.7662975,0.6455952,1.014862,-0.088866234,0.17911798,0.059430175,1.2291396,0.14225279,0.35115656,0.39835662,1.0451404,0.4471209,0.06894436,0.7734131,0.7680952,0.2796443,-0.20271936,0.78352773,801.4286,814.3223,813.91943,821.1722,824.3956,100.0,100.0,-0.0321044921875,0.03558349609375,1.003173828125,2.27294921875,-6.661834716796875,-1.368255615234375,2051721.6117216116,113782710.62271062,46990549.450549446,63.060986,1.0,1.0,1.0,1.0,1.0,20.0,,0 days 00:00:00.001000
2023-11-09 13:55:51.268,1.137337,-0.28461915,0.7662975,0.6455952,1.014862,-0.088866234,0.17911798,0.059430175,1.2291396,0.14225279,0.35115656,0.39835662,1.0451404,0.4471209,0.06894436,0.7734131,0.7680952,0.2796443,-0.20271936,0.78352773,798.20514,811.50183,815.12823,835.6777,997.25275,100.0,100.0,-0.0321044921875,0.03558349609375,1.003173828125,2.27294921875,-6.661834716796875,-1.368255615234375,2051721.6117216116,113782710.62271062,46990549.450549446,63.060986,1.0,1.0,1.0,1.0,1.0,20.0,,0 days 00:00:00
2023-11-09 13:55:51.268,1.137337,-0.28461915,0.7662975,0.6455952,1.014862,-0.088866234,0.17911798,0.059430175,1.2291396,0.14225279,0.35115656,0.39835662,1.0451404,0.4471209,0.06894436,0.7734131,0.7680952,0.2796443,-0.20271936,0.78352773,787.72894,788.1319,810.293,792.1612,888.0586,100.0,100.0,-0.0321044921875,0.03558349609375,1.003173828125,2.27294921875,-6.661834716796875,-1.368255615234375,2051721.6117216116,113782710.62271062,46990549.450549446,63.060986,1.0,1.0,1.0,1.0,1.0,20.0,,0 days 00:00:00
2023-11-09 13:55:51.269,1.137337,-0.28461915,0.7662975,0.6455952,1.014862,-0.088866234,0.17911798,0.059430175,1.2291396,0.14225279,0.35115656,0.39835662,1.0451404,0.4471209,0.06894436,0.7734131,0.7680952,0.2796443,-0.20271936,0.78352773,796.1905,792.96704,808.2784,771.2088,710.7692,100.0,100.0,-0.0321044921875,0.03558349609375,1.003173828125,2.27294921875,-6.661834716796875,-1.368255615234375,2051721.6117216116,113782710.62271062,46990549.450549446,63.060986,1.0,1.0,1.0,1.0,1.0,20.0,,0 days 00:00:00.001000
2023-11-09 13:55:51.269,1.137337,-0.28461915,0.7662975,0.6455952,1.014862,-0.088866234,0.17911798,0.059430175,1.2291396,0.14225279,0.35115656,0.39835662,1.0451404,0.4471209,0.06894436,0.7734131,0.7680952,0.2796443,-0.20271936,0.78352773,801.4286,808.68134,807.8755,795.38464,715.6044,100.0,100.0,-0.0321044921875,0.03558349609375,1.003173828125,2.27294921875,-6.661834716796875,-1.368255615234375,2051721.6117216116,113782710.62271062,46990549.450549446,63.060986,1.0,1.0,1.0,1.0,1.0,20.0,,0 days 00:00:00
2023-11-09 13:55:51.269,1.137337,-0.28461915,0.7662975,0.6455952,1.014862,-0.088866234,0.17911798,0.059430175,1.2291396,0.14225279,0.35115656,0.39835662,1.0451404,0.4471209,0.06894436,0.7734131,0.7680952,0.2796443,-0.20271936,0.78352773,790.54944,802.6374,804.2491,797.3993,744.21246,100.0,100.0,-0.0321044921875,0.03558349609375,1.003173828125,2.27294921875,-6.661834716796875,-1.368255615234375,2051721.6117216116,113782710.62271062,46990549.450549446,63.060986,1.0,1.0,1.0,1.0,1.0,20.0,,0 days 00:00:00
2023-11-09 13:55:51.269,1.137337,-0.28461915,0.7662975,0.6455952,1.014862,-0.088866234,0.17911798,0.059430175,1.2291396,0.14225279,0.35115656,0.39835662,1.0451404,0.4471209,0.06894436,0.7734131,0.7680952,0.2796443,-0.20271936,0.78352773,797.8022,802.6374,803.44324,803.8461,727.28937,100.0,100.0,-0.0321044921875,0.03558349609375,1.003173828125,2.27294921875,-6.661834716796875,-1.368255615234375,2051721.6117216116,113782710.62271062,46990549.450549446,63.060986,1.0,1.0,1.0,1.0,1.0,20.0,,0 days 00:00:00
2023-11-09 13:55:51.332,1.137337,-0.28461915,0.7662975,0.6455952,1.014862,-0.088866234,0.17911798,0.059430175,1.2291396,0.14225279,0.35115656,0.39835662,1.0451404,0.4471209,0.06894436,0.7734131,0.7680952,0.2796443,-0.20271936,0.78352773,805.4579,809.89014,806.6667,818.7546,717.619,100.0,100.0,-0.01873779296875,0.03143310546875,1.0008544921875,2.25799560546875,-7.424468994140625,0.2392578125,2043663.0036630037,113632014.65201464,46953479.853479855,63.11594,1.0,1.0,1.0,1.0,1.0,20.0,,0 days 00:00:00.063000
2023-11-09 13:55:51.333,1.137337,-0.28461915,0.7662975,0.6455952,1.014862,-0.088866234,0.17911798,0.059430175,1.2291396,0.14225279,0.35115656,0.39835662,1.0451404,0.4471209,0.06894436,0.7734131,0.7680952,0.2796443,-0.20271936,0.78352773,811.0989,811.0989,807.0696,815.5311,749.85345,100.0,100.0,-0.01873779296875,0.03143310546875,1.0008544921875,2.25799560546875,-7.424468994140625,0.2392578125,2043663.0036630037,113632014.65201464,46953479.853479855,63.11594,1.0,1.0,1.0,1.0,1.0,20.0,,0 days 00:00:00.001000
2023-11-09 13:55:51.333,1.137337,-0.28461915,0.7662975,0.6455952,1.014862,-0.088866234,0.17911798,0.059430175,1.2291396,0.14225279,0.35115656,0.39835662,1.0451404,0.4471209,0.06894436,0.7734131,0.7680952,0.2796443,-0.20271936,0.78352773,809.0842,814.7253,801.02563,814.7253,811.50183,100.0,100.0,-0.01873779296875,0.03143310546875,1.0008544921875,2.25799560546875,-7.424468994140625,0.2392578125,2043663.0036630037,113632014.65201464,46953479.853479855,63.11594,1.0,1.0,1.0,1.0,1.0,20.0,,0 days 00:00:00
2023-11-09 13:55:51.334,1.137337,-0.28461915,0.7662975,0.6455952,1.014862,-0.088866234,0.17911798,0.059430175,1.2291396,0.14225279,0.35115656,0.39835662,1.0451404,0.4471209,0.06894436,0.7734131,0.7680952,0.2796443,-0.20271936,0.78352773,794.17584,816.7399,798.20514,810.293,777.6557,100.0,100.0,-0.01873779296875,0.03143310546875,1.0008544921875,2.25799560546875,-7.424468994140625,0.2392578125,2043663.0036630037,113632014.65201464,46953479.853479855,63.11594,1.0,1.0,1.0,1.0,1.0,20.0,,0 days 00:00:00.001000
2023-11-09 13:55:51.334,1.137337,-0.28461915,0.7662975,0.6455952,1.014862,-0.088866234,0.17911798,0.059430175,1.2291396,0.14225279,0.35115656,0.39835662,1.0451404,0.4471209,0.06894436,0.7734131,0.7680952,0.2796443,-0.20271936,0.78352773,796.99634,816.337,808.2784,816.337,736.1539,100.0,100.0,-0.01873779296875,0.03143310546875,1.0008544921875,2.25799560546875,-7.424468994140625,0.2392578125,2043663.0036630037,113632014.65201464,46953479.853479855,63.11594,1.0,1.0,1.0,1.0,1.0,20.0,,0 days 00:00:00
2023-11-09 13:55:51.335,1.137337,-0.28461915,0.7662975,0.6455952,1.014862,-0.088866234,0.17911798,0.059430175,1.2291396,0.14225279,0.35115656,0.39835662,1.0451404,0.4471209,0.06894436,0.7734131,0.7680952,0.2796443,-0.20271936,0.78352773,807.8755,814.7253,809.0842,820.7692,838.9011,100.0,100.0,-0.01873779296875,0.03143310546875,1.0008544921875,2.25799560546875,-7.424468994140625,0.2392578125,2043663.0036630037,113632014.65201464,46953479.853479855,63.11594,1.0,1.0,1.0,1.0,1.0,20.0,,0 days 00:00:00.001000
2023-11-09 13:55:51.335,1.137337,-0.28461915,0.7662975,0.6455952,1.014862,-0.088866234,0.17911798,0.059430175,1.2291396,0.14225279,0.35115656,0.39835662,1.0451404,0.4471209,0.06894436,0.7734131,0.7680952,0.2796443,-0.20271936,0.78352773,824.3956,816.337,807.8755,815.12823,863.47986,100.0,100.0,-0.01873779296875,0.03143310546875,1.0008544921875,2.25799560546875,-7.424468994140625,0.2392578125,2043663.0036630037,113632014.65201464,46953479.853479855,63.11594,1.0,1.0,1.0,1.0,1.0,20.0,,0 days 00:00:00
2023-11-09 13:55:51.336,1.137337,-0.28461915,0.7662975,0.6455952,1.014862,-0.088866234,0.17911798,0.059430175,1.2291396,0.14225279,0.35115656,0.39835662,1.0451404,0.4471209,0.06894436,0.7734131,0.7680952,0.2796443,-0.20271936,0.78352773,832.0513,810.696,806.6667,820.3663,853.8095,100.0,100.0,-0.01873779296875,0.03143310546875,1.0008544921875,2.25799560546875,-7.424468994140625,0.2392578125,2043663.0036630037,113632014.65201464,46953479.853479855,63.11594,1.0,1.0,1.0,1.0,1.0,20.0,,0 days 00:00:00.001000
2023-11-09 13:55:51.336,1.137337,-0.28461915,0.7662975,0.6455952,1.014862,-0.088866234,0.17911798,0.059430175,1.2291396,0.14225279,0.35115656,0.39835662,1.0451404,0.4471209,0.06894436,0.7734131,0.7680952,0.2796443,-0.20271936,0.78352773,816.337,799.41394,792.1612,826.8132,818.3516,100.0,100.0,-0.01873779296875,0.03143310546875,1.0008544921875,2.25799560546875,-7.424468994140625,0.2392578125,2043663.0036630037,113632014.65201464,46953479.853479855,63.11594,1.0,1.0,1.0,1.0,1.0,20.0,,0 days 00:00:00
2023-11-09 13:55:51.337,1.137337,-0.28461915,0.7662975,0.6455952,1.014862,-0.088866234,0.17911798,0.059430175,1.2291396,0.14225279,0.35115656,0.39835662,1.0451404,0.4471209,0.06894436,0.7734131,0.7680952,0.2796443,-0.20271936,0.78352773,824.7985,810.696,797.8022,832.8571,934.7985,100.0,100.0,-0.01873779296875,0.03143310546875,1.0008544921875,2.25799560546875,-7.424468994140625,0.2392578125,2043663.0036630037,113632014.65201464,46953479.853479855,63.11594,1.0,1.0,1.0,1.0,1.0,20.0,,0 days 00:00:00.001000
2023-11-09 13:55:51.337,1.137337,-0.28461915,0.7662975,0.6455952,1.014862,-0.088866234,0.17911798,0.059430175,1.2291396,0.14225279,0.35115656,0.39835662,1.0451404,0.4471209,0.06894436,0.7734131,0.7680952,0.2796443,-0.20271936,0.78352773,841.7216,819.9634,811.50183,828.4249,1003.69965,100.0,100.0,-0.01873779296875,0.03143310546875,1.0008544921875,2.25799560546875,-7.424468994140625,0.2392578125,2043663.0036630037,113632014.65201464,46953479.853479855,63.11594,1.0,1.0,1.0,1.0,1.0,20.0,,0 days 00:00:00
2023-11-09 13:55:51.338,1.137337,-0.28461915,0.7662975,0.6455952,1.014862,-0.088866234,0.17911798,0.059430175,1.2291396,0.14225279,0.35115656,0.39835662,1.0451404,0.4471209,0.06894436,0.7734131,0.7680952,0.2796443,-0.20271936,0.78352773,808.2784,811.9048,809.4872,821.5751,800.2198,100.0,100.0,-0.01873779296875,0.03143310546875,1.0008544921875,2.25799560546875,-7.424468994140625,0.2392578125,2043663.0036630037,113632014.65201464,46953479.853479855,63.11594,1.0,1.0,1.0,1.0,1.0,20.0,,0 days 00:00:00.001000
2023-11-09 13:55:51.364,1.137337,-0.28461915,0.7662975,0.6455952,1.014862,-0.088866234,0.17911798,0.059430175,1.2291396,0.14225279,0.35115656,0.39835662,1.0451404,0.4471209,0.06894436,0.7734131,0.7680952,0.2796443,-0.20271936,0.78352773,780.87915,805.8608,818.3516,816.7399,797.8022,100.0,100.0,-0.01873779296875,0.03143310546875,1.0008544921875,2.25799560546875,-7.424468994140625,0.2392578125,2043663.0036630037,113632014.65201464,46953479.853479855,63.11594,1.0,1.0,1.0,1.0,1.0,20.0,,0 days 00:00:00.026000
2023-11-09 13:55:51.364,1.137337,-0.28461915,0.7662975,0.6455952,1.014862,-0.088866234,0.17911798,0.059430175,1.2291396,0.14225279,0.35115656,0.39835662,1.0451404,0.4471209,0.06894436,0.7734131,0.7680952,0.2796443,-0.20271936,0.78352773,795.78754,817.5458,819.9634,819.9634,936.0073,100.0,100.0,-0.01873779296875,0.03143310546875,1.0008544921875,2.25799560546875,-7.424468994140625,0.2392578125,2043663.0036630037,113632014.65201464,46953479.853479855,63.11594,1.0,1.0,1.0,1.0,1.0,20.0,,0 days 00:00:00
2023-11-09 13:55:51.365,1.137337,-0.28461915,0.7662975,0.6455952,1.014862,-0.088866234,0.17911798,0.059430175,1.2291396,0.14225279,0.35115656,0.39835662,1.0451404,0.4471209,0.06894436,0.7734131,0.7680952,0.2796443,-0.20271936,0.78352773,808.2784,813.91943,811.9048,810.293,853.8095,100.0,100.0,-0.01873779296875,0.03143310546875,1.0008544921875,2.25799560546875,-7.424468994140625,0.2392578125,2043663.0036630037,113632014.65201464,46953479.853479855,63.11594,1.0,1.0,1.0,1.0,1.0,20.0,,0 days 00:00:00.001000
2023-11-09 13:55:51.365,1.137337,-0.34218806,0.7867199,0.6455952,1.014862,-0.105530426,0.16962916,0.059430175,1.2291396,0.21093191,0.35692945,0.39835662,1.0451404,0.46835247,0.11022682,0.7734131,0.7680952,0.30162135,-0.11292343,0.78352773,808.2784,803.0403,813.91943,800.6227,750.65936,100.0,100.0,-0.01873779296875,0.03143310546875,1.0008544921875,2.25799560546875,-7.424468994140625,0.2392578125,2043663.0036630037,113632014.65201464,46953479.853479855,63.11594,1.0,1.0,1.0,1.0,1.0,20.0,,0 days 00:00:00
2023-11-09 13:55:51.367,1.137337,-0.34218806,0.7867199,0.6455952,1.014862,-0.105530426,0.16962916,0.059430175,1.2291396,0.21093191,0.35692945,0.39835662,1.0451404,0.46835247,0.11022682,0.7734131,0.7680952,0.30162135,-0.11292343,0.78352773,801.4286,811.50183,815.5311,808.2784,734.94507,100.0,100.0,-0.01873779296875,0.03143310546875,1.0008544921875,2.25799560546875,-7.424468994140625,0.2392578125,2043663.0036630037,113632014.65201464,46953479.853479855,63.11594,1.0,1.0,1.0,1.0,1.0,20.0,,0 days 00:00:00.002000
2023-11-09 13:55:51.367,1.137337,-0.34218806,0.7867199,0.6455952,1.014862,-0.105530426,0.16962916,0.059430175,1.2291396,0.21093191,0.35692945,0.39835662,1.0451404,0.46835247,0.11022682,0.7734131,0.7680952,0.30162135,-0.11292343,0.78352773,809.0842,815.9341,817.5458,836.08057,992.01465,100.0,100.0,-0.01873779296875,0.03143310546875,1.0008544921875,2.25799560546875,-7.424468994140625,0.2392578125,2043663.0036630037,113632014.65201464,46953479.853479855,63.11594,1.0,1.0,1.0,1.0,1.0,20.0,,0 days 00:00:00
2023-11-09 13:55:51.367,1.137337,-0.34218806,0.7867199,0.6455952,1.014862,-0.105530426,0.16962916,0.059430175,1.2291396,0.21093191,0.35692945,0.39835662,1.0451404,0.46835247,0.11022682,0.7734131,0.7680952,0.30162135,-0.11292343,0.78352773,811.0989,810.293,817.1429,837.28937,989.19415,100.0,100.0,-0.01873779296875,0.03143310546875,1.0008544921875,2.25799560546875,-7.424468994140625,0.2392578125,2043663.0036630037,113632014.65201464,46953479.853479855,63.11594,1.0,1.0,1.0,1.0,1.0,20.0,,0 days 00:00:00
2023-11-09 13:55:51.368,1.137337,-0.34218806,0.7867199,0.6455952,1.014862,-0.105530426,0.16962916,0.059430175,1.2291396,0.21093191,0.35692945,0.39835662,1.0451404,0.46835247,0.11022682,0.7734131,0.7680952,0.30162135,-0.11292343,0.78352773,804.65204,806.26373,811.0989,826.8132,703.5165,100.0,100.0,-0.01873779296875,0.03143310546875,1.0008544921875,2.25799560546875,-7.424468994140625,0.2392578125,2043663.0036630037,113632014.65201464,46953479.853479855,63.11594,1.0,1.0,1.0,1.0,1.0,20.0,,0 days 00:00:00.001000
2023-11-09 13:55:51.368,1.137337,-0.34218806,0.7867199,0.6455952,1.014862,-0.105530426,0.16962916,0.059430175,1.2291396,0.21093191,0.35692945,0.39835662,1.0451404,0.46835247,0.11022682,0.7734131,0.7680952,0.30162135,-0.11292343,0.78352773,828.4249,800.2198,810.696,842.9304,694.2491,100.0,100.0,-0.01873779296875,0.03143310546875,1.0008544921875,2.25799560546875,-7.424468994140625,0.2392578125,2043663.0036630037,113632014.65201464,46953479.853479855,63.11594,1.0,1.0,1.0,1.0,1.0,20.0,,0 days 00:00:00
2023-11-09 13:55:51.368,1.137337,-0.34218806,0.7867199,0.6455952,1.014862,-0.105530426,0.16962916,0.059430175,1.2291396,0.21093191,0.35692945,0.39835662,1.0451404,0.46835247,0.11022682,0.7734131,0.7680952,0.30162135,-0.11292343,0.78352773,821.5751,807.0696,812.71063,823.5897,772.8205,100.0,100.0,-0.01873779296875,0.03143310546875,1.0008544921875,2.25799560546875,-7.424468994140625,0.2392578125,2043663.0036630037,113632014.65201464,46953479.853479855,63.11594,1.0,1.0,1.0,1.0,1.0,20.0,,0 days 00:00:00
2023-11-09 13:55:51.369,1.137337,-0.34218806,0.7867199,0.6455952,1.014862,-0.105530426,0.16962916,0.059430175,1.2291396,0.21093191,0.35692945,0.39835662,1.0451404,0.46835247,0.11022682,0.7734131,0.7680952,0.30162135,-0.11292343,0.78352773,788.1319,816.7399,810.696,795.78754,750.2564,100.0,100.0,-0.01873779296875,0.03143310546875,1.0008544921875,2.25799560546875,-7.424468994140625,0.2392578125,2043663.0036630037,113632014.65201464,46953479.853479855,63.11594,1.0,1.0,1.0,1.0,1.0,20.0,,0 days 00:00:00.001000
2023-11-09 13:55:51.369,1.137337,-0.34218806,0.7867199,0.6455952,1.014862,-0.105530426,0.16962916,0.059430175,1.2291396,0.21093191,0.35692945,0.39835662,1.0451404,0.46835247,0.11022682,0.7734131,0.7680952,0.30162135,-0.11292343,0.78352773,761.9414,813.5165,807.47253,796.99634,774.0293,100.0,100.0,-0.01873779296875,0.03143310546875,1.0008544921875,2.25799560546875,-7.424468994140625,0.2392578125,2043663.0036630037,113632014.65201464,46953479.853479855,63.11594,1.0,1.0,1.0,1.0,1.0,20.0,,0 days 00:00:00
2023-11-09 13:55:51.401,1.137337,-0.34218806,0.7867199,0.6455952,1.014862,-0.105530426,0.16962916,0.059430175,1.2291396,0.21093191,0.35692945,0.39835662,1.0451404,0.46835247,0.11022682,0.7734131,0.7680952,0.30162135,-0.11292343,0.78352773,756.7033,809.89014,801.4286,800.6227,828.4249,100.0,100.0,-0.0186767578125,0.0323486328125,1.00628662109375,1.79443359375,-7.140350341796875,1.375732421875,2033992.673992674,113537728.93772894,46918021.97802198,63.167675,1.0,1.0,1.0,1.0,1.0,20.0,,0 days 00:00:00.032000
2023-11-09 13:55:51.402,1.137337,-0.34218806,0.7867199,0.6455952,1.014862,-0.105530426,0.16962916,0.059430175,1.2291396,0.21093191,0.35692945,0.39835662,1.0451404,0.46835247,0.11022682,0.7734131,0.7680952,0.30162135,-0.11292343,0.78352773,763.95605,810.696,809.4872,805.4579,798.20514,100.0,100.0,-0.0186767578125,0.0323486328125,1.00628662109375,1.79443359375,-7.140350341796875,1.375732421875,2033992.673992674,113537728.93772894,46918021.97802198,63.167675,1.0,1.0,1.0,1.0,1.0,20.0,,0 days 00:00:00.001000
2023-11-09 13:55:51.403,1.137337,-0.34218806,0.7867199,0.6455952,1.014862,-0.105530426,0.16962916,0.059430175,1.2291396,0.21093191,0.35692945,0.39835662,1.0451404,0.46835247,0.11022682,0.7734131,0.7680952,0.30162135,-0.11292343,0.78352773,768.7912,813.5165,813.91943,808.2784,749.45056,100.0,100.0,-0.0186767578125,0.0323486328125,1.00628662109375,1.79443359375,-7.140350341796875,1.375732421875,2033992.673992674,113537728.93772894,46918021.97802198,63.167675,1.0,1.0,1.0,1.0,1.0,20.0,,0 days 00:00:00.001000
2023-11-09 13:55:51.403,1.137337,-0.34218806,0.7867199,0.6455952,1.014862,-0.105530426,0.16962916,0.059430175,1.2291396,0.21093191,0.35692945,0.39835662,1.0451404,0.46835247,0.11022682,0.7734131,0.7680952,0.30162135,-0.11292343,0.78352773,774.0293,807.47253,809.0842,794.17584,759.12085,100.0,100.0,-0.0186767578125,0.0323486328125,1.00628662109375,1.79443359375,-7.140350341796875,1.375732421875,2033992.673992674,113537728.93772894,46918021.97802198,63.167675,1.0,1.0,1.0,1.0,1.0,20.0,,0 days 00:00:00
2023-11-09 13:55:51.403,1.137337,-0.34218806,0.7867199,0.6455952,1.014862,-0.105530426,0.16962916,0.059430175,1.2291396,0.21093191,0.35692945,0.39835662,1.0451404,0.46835247,0.11022682,0.7734131,0.7680952,0.30162135,-0.11292343,0.78352773,780.87915,803.8461,809.4872,797.3993,785.31134,100.0,100.0,-0.0186767578125,0.0323486328125,1.00628662109375,1.79443359375,-7.140350341796875,1.375732421875,2033992.673992674,113537728.93772894,46918021.97802198,63.167675,1.0,1.0,1.0,1.0,1.0,20.0,,0 days 00:00:00
2023-11-09 13:55:51.404,1.137337,-0.34218806,0.7867199,0.6455952,1.014862,-0.105530426,0.16962916,0.059430175,1.2291396,0.21093191,0.35692945,0.39835662,1.0451404,0.46835247,0.11022682,0.7734131,0.7680952,0.30162135,-0.11292343,0.78352773,766.77655,804.2491,809.0842,798.60803,804.2491,100.0,100.0,-0.0186767578125,0.0323486328125,1.00628662109375,1.79443359375,-7.140350341796875,1.375732421875,2033992.673992674,113537728.93772894,46918021.97802198,63.167675,1.0,1.0,1.0,1.0,1.0,20.0,,0 days 00:00:00.001000
2023-11-09 13:55:51.405,1.137337,-0.34218806,0.7867199,0.6455952,1.014862,-0.105530426,0.16962916,0.059430175,1.2291396,0.21093191,0.35692945,0.39835662,1.0451404,0.46835247,0.11022682,0.7734131,0.7680952,0.30162135,-0.11292343,0.78352773,762.74725,797.3993,810.696,792.96704,782.49084,100.0,100.0,-0.0186767578125,0.0323486328125,1.00628662109375,1.79443359375,-7.140350341796875,1.375732421875,2033992.673992674,113537728.93772894,46918021.97802198,63.167675,1.0,1.0,1.0,1.0,1.0,20.0,,0 days 00:00:00.001000
