TimeStamp,Delta_TP9,Delta_AF7,Delta_AF8,Delta_TP10,Theta_TP9,Theta_AF7,Theta_AF8,Theta_TP10,Alpha_TP9,Alpha_AF7,Alpha_AF8,Alpha_TP10,Beta_TP9,Beta_AF7,Beta_AF8,Beta_TP10,Gamma_TP9,Gamma_AF7,Gamma_AF8,Gamma_TP10,RAW_TP9,RAW_AF7,RAW_AF8,RAW_TP10,AUX_RIGHT,Mellow,Concentration,Accelerometer_X,Accelerometer_Y,Accelerometer_Z,Gyro_X,Gyro_Y,Gyro_Z,PPG_Ambient,PPG_IR,PPG_Red,Heart_Rate,HeadBandOn,HSI_TP9,HSI_AF7,HSI_AF8,HSI_TP10,Battery,Elements,TimeDifference
2023-11-09 13:45:15.694,0.77828115,-0.45999447,-0.2932633,1.0917192,0.4452426,-0.17946932,-0.059582748,0.6095256,0.7126295,-0.17112498,-0.24011047,0.9491593,0.9539946,0.2288952,0.4419393,0.9361207,0.5094543,-0.37237933,0.32558092,0.46885726,805.8608,829.2308,825.6044,799.81683,637.4359,0.0,0.0,0.13458251953125,0.0205078125,0.9896240234375,3.566436767578125,-4.239349365234375,-2.729034423828125,1439267.3992673992,95897435.89743587,52054578.754578754,68.29012,1.0,2.0,1.0,1.0,2.0,20.0,,0 days 00:00:00.032000
2023-11-09 13:45:15.695,0.77828115,-0.45999447,-0.2932633,1.0917192,0.4452426,-0.17946932,-0.059582748,0.6095256,0.7126295,-0.17112498,-0.24011047,0.9491593,0.9539946,0.2288952,0.4419393,0.9361207,0.5094543,-0.37237933,0.32558092,0.46885726,795.38464,838.49817,822.7839,788.93774,653.5531,0.0,0.0,0.13458251953125,0.0205078125,0.9896240234375,3.566436767578125,-4.239349365234375,-2.729034423828125,1439267.3992673992,95897435.89743587,52054578.754578754,68.29012,1.0,2.0,1.0,1.0,2.0,20.0,,0 days 00:00:00.001000
2023-11-09 13:45:15.696,0.77828115,-0.45999447,-0.2932633,1.0917192,0.4452426,-0.17946932,-0.059582748,0.6095256,0.7126295,-0.17112498,-0.24011047,0.9491593,0.9539946,0.2288952,0.4419393,0.9361207,0.5094543,-0.37237933,0.32558092,0.46885726,786.52014,832.4542,814.3223,770.0,723.663,0.0,0.0,0.13458251953125,0.0205078125,0.9896240234375,3.566436767578125,-4.239349365234375,-2.729034423828125,1439267.3992673992,95897435.89743587,52054578.754578754,68.29012,1.0,2.0,1.0,1.0,2.0,20.0,,0 days 00:00:00.001000
2023-11-09 13:45:15.696,0.77828115,-0.45999447,-0.2932633,1.0917192,0.4452426,-0.17946932,-0.059582748,0.6095256,0.7126295,-0.17112498,-0.24011047,0.9491593,0.9539946,0.2288952,0.4419393,0.9361207,0.5094543,-0.37237933,0.32558092,0.46885726,799.81683,833.663,822.7839,784.90845,753.47986,0.0,0.0,0.13458251953125,0.0205078125,0.9896240234375,3.566436767578125,-4.239349365234375,-2.729034423828125,1439267.3992673992,95897435.89743587,52054578.754578754,68.29012,1.0,2.0,1.0,1.0,2.0,20.0,,0 days 00:00:00
2023-11-09 13:45:15.696,0.77828115,-0.45999447,-0.2932633,1.0917192,0.4452426,-0.17946932,-0.059582748,0.6095256,0.7126295,-0.17112498,-0.24011047,0.9491593,0.9539946,0.2288952,0.4419393,0.9361207,0.5094543,-0.37237933,0.32558092,0.46885726,809.4872,838.0952,829.6337,805.8608,738.1685,0.0,0.0,0.13458251953125,0.0205078125,0.9896240234375,3.566436767578125,-4.239349365234375,-2.729034423828125,1439267.3992673992,95897435.89743587,52054578.754578754,68.29012,1.0,2.0,1.0,1.0,2.0,20.0,,0 days 00:00:00
2023-11-09 13:45:15.697,0.77828115,-0.45999447,-0.2932633,1.0917192,0.4452426,-0.17946932,-0.059582748,0.6095256,0.7126295,-0.17112498,-0.24011047,0.9491593,0.9539946,0.2288952,0.4419393,0.9361207,0.5094543,-0.37237933,0.32558092,0.46885726,804.2491,834.4689,823.1868,796.5934,746.63007,0.0,0.0,0.13458251953125,0.0205078125,0.9896240234375,3.566436767578125,-4.239349365234375,-2.729034423828125,1439267.3992673992,95897435.89743587,52054578.754578754,68.29012,1.0,2.0,1.0,1.0,2.0,20.0,,0 days 00:00:00.001000
2023-11-09 13:45:15.697,0.77828115,-0.45999447,-0.2932633,1.0917192,0.4452426,-0.17946932,-0.059582748,0.6095256,0.7126295,-0.17112498,-0.24011047,0.9491593,0.9539946,0.2288952,0.4419393,0.9361207,0.5094543,-0.37237933,0.32558092,0.46885726,792.5641,830.0366,813.1135,796.99634,835.2747,0.0,0.0,0.13458251953125,0.0205078125,0.9896240234375,3.566436767578125,-4.239349365234375,-2.729034423828125,1439267.3992673992,95897435.89743587,52054578.754578754,68.29012,1.0,2.0,1.0,1.0,2.0,20.0,,0 days 00:00:00
2023-11-09 13:45:15.697,0.77828115,-0.45999447,-0.2932633,1.0917192,0.4452426,-0.17946932,-0.059582748,0.6095256,0.7126295,-0.17112498,-0.24011047,0.9491593,0.9539946,0.2288952,0.4419393,0.9361207,0.5094543,-0.37237933,0.32558092,0.46885726,806.26373,827.619,804.2491,816.7399,1076.63,0.0,0.0,0.13458251953125,0.0205078125,0.9896240234375,3.566436767578125,-4.239349365234375,-2.729034423828125,1439267.3992673992,95897435.89743587,52054578.754578754,68.29012,1.0,2.0,1.0,1.0,2.0,20.0,,0 days 00:00:00
2023-11-09 13:45:15.697,0.77828115,-0.45999447,-0.2932633,1.0917192,0.4452426,-0.17946932,-0.059582748,0.6095256,0.7126295,-0.17112498,-0.24011047,0.9491593,0.9539946,0.2288952,0.4419393,0.9361207,0.5094543,-0.37237933,0.32558092,0.46885726,811.0989,839.304,817.9487,801.02563,965.42126,0.0,0.0,0.13458251953125,0.0205078125,0.9896240234375,3.566436767578125,-4.239349365234375,-2.729034423828125,1439267.3992673992,95897435.89743587,52054578.754578754,68.29012,1.0,2.0,1.0,1.0,2.0,20.0,,0 days 00:00:00
2023-11-09 13:45:15.698,0.77828115,-0.45999447,-0.2932633,1.0917192,0.4452426,-0.17946932,-0.059582748,0.6095256,0.7126295,-0.17112498,-0.24011047,0.9491593,0.9539946,0.2288952,0.4419393,0.9361207,0.5094543,-0.37237933,0.32558092,0.46885726,794.9817,842.52747,833.2601,798.20514,722.0513,0.0,0.0,0.13458251953125,0.0205078125,0.9896240234375,3.566436767578125,-4.239349365234375,-2.729034423828125,1439267.3992673992,95897435.89743587,52054578.754578754,68.29012,1.0,2.0,1.0,1.0,2.0,20.0,,0 days 00:00:00.001000
2023-11-09 13:45:15.698,0.77828115,-0.45999447,-0.2932633,1.0917192,0.4452426,-0.17946932,-0.059582748,0.6095256,0.7126295,-0.17112498,-0.24011047,0.9491593,0.9539946,0.2288952,0.4419393,0.9361207,0.5094543,-0.37237933,0.32558092,0.46885726,797.8022,838.49817,824.3956,804.2491,790.9524,0.0,0.0,0.13458251953125,0.0205078125,0.9896240234375,3.566436767578125,-4.239349365234375,-2.729034423828125,1439267.3992673992,95897435.89743587,52054578.754578754,68.29012,1.0,2.0,1.0,1.0,2.0,20.0,,0 days 00:00:00
2023-11-09 13:45:15.698,0.77828115,-0.45999447,-0.2932633,1.0917192,0.4452426,-0.17946932,-0.059582748,0.6095256,0.7126295,-0.17112498,-0.24011047,0.9491593,0.9539946,0.2288952,0.4419393,0.9361207,0.5094543,-0.37237933,0.32558092,0.46885726,816.7399,842.52747,813.1135,792.1612,774.43225,0.0,0.0,0.13458251953125,0.0205078125,0.9896240234375,3.566436767578125,-4.239349365234375,-2.729034423828125,1439267.3992673992,95897435.89743587,52054578.754578754,68.29012,1.0,2.0,1.0,1.0,2.0,20.0,,0 days 00:00:00
2023-11-09 13:45:15.764,0.77828115,-0.45999447,-0.2932633,1.0917192,0.4452426,-0.17946932,-0.059582748,0.6095256,0.7126295,-0.17112498,-0.24011047,0.9491593,0.9539946,0.2288952,0.4419393,0.9361207,0.5094543,-0.37237933,0.32558092,0.46885726,813.5165,839.304,812.3077,792.5641,700.293,0.0,0.0,0.1373291015625,0.02239990234375,0.9866943359375,3.63372802734375,-4.7552490234375,-2.818756103515625,1439267.3992673992,95897435.89743587,52054578.754578754,68.29012,1.0,2.0,1.0,1.0,2.0,20.0,,0 days 00:00:00.066000
2023-11-09 13:45:15.765,0.77828115,-0.45999447,-0.2932633,1.0917192,0.4452426,-0.17946932,-0.059582748,0.6095256,0.7126295,-0.17112498,-0.24011047,0.9491593,0.9539946,0.2288952,0.4419393,0.9361207,0.5094543,-0.37237933,0.32558092,0.46885726,797.3993,834.4689,792.96704,796.99634,696.6667,0.0,0.0,0.1373291015625,0.02239990234375,0.9866943359375,3.63372802734375,-4.7552490234375,-2.818756103515625,1439267.3992673992,95897435.89743587,52054578.754578754,68.29012,1.0,2.0,1.0,1.0,2.0,20.0,,0 days 00:00:00.001000
2023-11-09 13:45:15.765,0.77828115,-0.45999447,-0.2932633,1.0917192,0.4452426,-0.17946932,-0.059582748,0.6095256,0.7126295,-0.17112498,-0.24011047,0.9491593,0.9539946,0.2288952,0.4419393,0.9361207,0.5094543,-0.37237933,0.32558092,0.46885726,797.8022,830.84247,786.52014,792.96704,761.9414,0.0,0.0,0.1373291015625,0.02239990234375,0.9866943359375,3.63372802734375,-4.7552490234375,-2.818756103515625,1439267.3992673992,95897435.89743587,52054578.754578754,68.29012,1.0,2.0,1.0,1.0,2.0,20.0,,0 days 00:00:00
2023-11-09 13:45:15.766,0.77828115,-0.45999447,-0.2932633,1.0917192,0.4452426,-0.17946932,-0.059582748,0.6095256,0.7126295,-0.17112498,-0.24011047,0.9491593,0.9539946,0.2288952,0.4419393,0.9361207,0.5094543,-0.37237933,0.32558092,0.46885726,801.8315,830.84247,817.1429,783.69965,774.43225,0.0,0.0,0.1373291015625,0.02239990234375,0.9866943359375,3.63372802734375,-4.7552490234375,-2.818756103515625,1439267.3992673992,95897435.89743587,52054578.754578754,68.29012,1.0,2.0,1.0,1.0,2.0,20.0,,0 days 00:00:00.001000
2023-11-09 13:45:15.767,0.77828115,-0.45999447,-0.2932633,1.0917192,0.4452426,-0.17946932,-0.059582748,0.6095256,0.7126295,-0.17112498,-0.24011047,0.9491593,0.9539946,0.2288952,0.4419393,0.9361207,0.5094543,-0.37237933,0.32558092,0.46885726,804.65204,830.4396,823.9927,790.14655,757.50916,0.0,0.0,0.1373291015625,0.02239990234375,0.9866943359375,3.63372802734375,-4.7552490234375,-2.818756103515625,1439267.3992673992,95897435.89743587,52054578.754578754,68.29012,1.0,2.0,1.0,1.0,2.0,20.0,,0 days 00:00:00.001000
2023-11-09 13:45:15.767,0.77828115,-0.45999447,-0.2932633,1.0917192,0.4452426,-0.17946932,-0.059582748,0.6095256,0.7126295,-0.17112498,-0.24011047,0.9491593,0.9539946,0.2288952,0.4419393,0.9361207,0.5094543,-0.37237933,0.32558092,0.46885726,795.38464,826.4103,819.15753,811.9048,766.77655,0.0,0.0,0.1373291015625,0.02239990234375,0.9866943359375,3.63372802734375,-4.7552490234375,-2.818756103515625,1439267.3992673992,95897435.89743587,52054578.754578754,68.29012,1.0,2.0,1.0,1.0,2.0,20.0,,0 days 00:00:00
2023-11-09 13:45:15.768,0.77828115,-0.45999447,-0.2932633,1.0917192,0.4452426,-0.17946932,-0.059582748,0.6095256,0.7126295,-0.17112498,-0.24011047,0.9491593,0.9539946,0.2288952,0.4419393,0.9361207,0.5094543,-0.37237933,0.32558092,0.46885726,801.8315,816.337,816.7399,809.4872,1049.6337,0.0,0.0,0.1373291015625,0.02239990234375,0.9866943359375,3.63372802734375,-4.7552490234375,-2.818756103515625,1439267.3992673992,95897435.89743587,52054578.754578754,68.29012,1.0,2.0,1.0,1.0,2.0,20.0,,0 days 00:00:00.001000
2023-11-09 13:45:15.768,0.77828115,-0.45999447,-0.2932633,1.0917192,0.4452426,-0.17946932,-0.059582748,0.6095256,0.7126295,-0.17112498,-0.24011047,0.9491593,0.9539946,0.2288952,0.4419393,0.9361207,0.5094543,-0.37237933,0.32558092,0.46885726,817.5458,816.337,813.5165,818.7546,1162.8572,0.0,0.0,0.1373291015625,0.02239990234375,0.9866943359375,3.63372802734375,-4.7552490234375,-2.818756103515625,1439267.3992673992,95897435.89743587,52054578.754578754,68.29012,1.0,2.0,1.0,1.0,2.0,20.0,,0 days 00:00:00
2023-11-09 13:45:15.769,0.77828115,-0.45999447,-0.2932633,1.0917192,0.4452426,-0.17946932,-0.059582748,0.6095256,0.7126295,-0.17112498,-0.24011047,0.9491593,0.9539946,0.2288952,0.4419393,0.9361207,0.5094543,-0.37237933,0.32558092,0.46885726,806.26373,830.0366,827.2161,817.5458,814.7253,0.0,0.0,0.1373291015625,0.02239990234375,0.9866943359375,3.63372802734375,-4.7552490234375,-2.818756103515625,1439267.3992673992,95897435.89743587,52054578.754578754,68.29012,1.0,2.0,1.0,1.0,2.0,20.0,,0 days 00:00:00.001000
2023-11-09 13:45:15.769,0.77828115,-0.45999447,-0.2932633,1.0917192,0.4452426,-0.17946932,-0.059582748,0.6095256,0.7126295,-0.17112498,-0.24011047,0.9491593,0.9539946,0.2288952,0.4419393,0.9361207,0.5094543,-0.37237933,0.32558092,0.46885726,788.93774,832.8571,821.5751,781.28204,728.9011,0.0,0.0,0.1373291015625,0.02239990234375,0.9866943359375,3.63372802734375,-4.7552490234375,-2.818756103515625,1439267.3992673992,95897435.89743587,52054578.754578754,68.29012,1.0,2.0,1.0,1.0,2.0,20.0,,0 days 00:00:00
2023-11-09 13:45:15.770,0.77828115,-0.45999447,-0.2932633,1.0917192,0.4452426,-0.17946932,-0.059582748,0.6095256,0.7126295,-0.17112498,-0.24011047,0.9491593,0.9539946,0.2288952,0.4419393,0.9361207,0.5094543,-0.37237933,0.32558092,0.46885726,787.72894,833.663,814.3223,781.28204,801.8315,0.0,0.0,0.1373291015625,0.02239990234375,0.9866943359375,3.63372802734375,-4.7552490234375,-2.818756103515625,1439267.3992673992,95897435.89743587,52054578.754578754,68.29012,1.0,2.0,1.0,1.0,2.0,20.0,,0 days 00:00:00.001000
2023-11-09 13:45:15.770,0.77828115,-0.45999447,-0.2932633,1.0917192,0.4452426,-0.17946932,-0.059582748,0.6095256,0.7126295,-0.17112498,-0.24011047,0.9491593,0.9539946,0.2288952,0.4419393,0.9361207,0.5094543,-0.37237933,0.32558092,0.46885726,791.3553,833.663,820.3663,792.1612,771.2088,0.0,0.0,0.1373291015625,0.02239990234375,0.9866943359375,3.63372802734375,-4.7552490234375,-2.818756103515625,1439267.3992673992,95897435.89743587,52054578.754578754,68.29012,1.0,2.0,1.0,1.0,2.0,20.0,,0 days 00:00:00
2023-11-09 13:45:15.797,0.77828115,-0.45999447,-0.2932633,1.0917192,0.4452426,-0.17946932,-0.059582748,0.6095256,0.7126295,-0.17112498,-0.24011047,0.9491593,0.9539946,0.2288952,0.4419393,0.9361207,0.5094543,-0.37237933,0.32558092,0.46885726,772.01465,829.6337,822.7839,785.7143,755.09155,0.0,0.0,0.1505126953125,0.02667236328125,0.99517822265625,4.029998779296875,-5.615081787109375,0.04486083984375,1437655.6776556775,95868424.9084249,52064249.08424908,68.29012,1.0,2.0,1.0,1.0,2.0,20.0,,0 days 00:00:00.027000
2023-11-09 13:45:15.798,0.77828115,-0.45999447,-0.2932633,1.0917192,0.4452426,-0.17946932,-0.059582748,0.6095256,0.7126295,-0.17112498,-0.24011047,0.9491593,0.9539946,0.2288952,0.4419393,0.9361207,0.5094543,-0.37237933,0.32558092,0.46885726,776.04395,828.4249,816.7399,784.5055,803.0403,0.0,0.0,0.1505126953125,0.02667236328125,0.99517822265625,4.029998779296875,-5.615081787109375,0.04486083984375,1437655.6776556775,95868424.9084249,52064249.08424908,68.29012,1.0,2.0,1.0,1.0,2.0,20.0,,0 days 00:00:00.001000
2023-11-09 13:45:15.799,0.77828115,-0.45999447,-0.2932633,1.0917192,0.4452426,-0.17946932,-0.059582748,0.6095256,0.7126295,-0.17112498,-0.24011047,0.9491593,0.9539946,0.2288952,0.4419393,0.9361207,0.5094543,-0.37237933,0.32558092,0.46885726,790.54944,828.4249,814.7253,791.75824,802.23444,0.0,0.0,0.1505126953125,0.02667236328125,0.99517822265625,4.029998779296875,-5.615081787109375,0.04486083984375,1437655.6776556775,95868424.9084249,52064249.08424908,68.29012,1.0,2.0,1.0,1.0,2.0,20.0,,0 days 00:00:00.001000
2023-11-09 13:45:15.800,0.77828115,-0.45999447,-0.2932633,1.0917192,0.4452426,-0.17946932,-0.059582748,0.6095256,0.7126295,-0.17112498,-0.24011047,0.9491593,0.9539946,0.2288952,0.4419393,0.9361207,0.5094543,-0.37237933,0.32558092,0.46885726,803.0403,829.2308,816.337,803.0403,743.4066,0.0,0.0,0.1505126953125,0.02667236328125,0.99517822265625,4.029998779296875,-5.615081787109375,0.04486083984375,1437655.6776556775,95868424.9084249,52064249.08424908,68.29012,1.0,2.0,1.0,1.0,2.0,20.0,,0 days 00:00:00.001000
2023-11-09 13:45:15.803,0.77828115,-0.45999447,-0.2932633,1.0917192,0.4452426,-0.17946932,-0.059582748,0.6095256,0.7126295,-0.17112498,-0.24011047,0.9491593,0.9539946,0.2288952,0.4419393,0.9361207,0.5094543,-0.37237933,0.32558092,0.46885726,806.26373,832.0513,816.337,799.41394,732.52747,0.0,0.0,0.1505126953125,0.02667236328125,0.99517822265625,4.029998779296875,-5.615081787109375,0.04486083984375,1437655.6776556775,95868424.9084249,52064249.08424908,68.29012,1.0,2.0,1.0,1.0,2.0,20.0,,0 days 00:00:00.003000
2023-11-09 13:45:15.804,0.77828115,-0.45999447,-0.2932633,1.0917192,0.4452426,-0.17946932,-0.059582748,0.6095256,0.7126295,-0.17112498,-0.24011047,0.9491593,0.9539946,0.2288952,0.4419393,0.9361207,0.5094543,-0.37237933,0.32558092,0.46885726,787.326,823.5897,807.8755,787.72894,839.304,0.0,0.0,0.1505126953125,0.02667236328125,0.99517822265625,4.029998779296875,-5.615081787109375,0.04486083984375,1437655.6776556775,95868424.9084249,52064249.08424908,68.29012,1.0,2.0,1.0,1.0,2.0,20.0,,0 days 00:00:00.001000
2023-11-09 13:45:15.805,0.77828115,-0.45999447,-0.2932633,1.0917192,0.4452426,-0.17946932,-0.059582748,0.6095256,0.7126295,-0.17112498,-0.24011047,0.9491593,0.9539946,0.2288952,0.4419393,0.9361207,0.5094543,-0.37237933,0.32558092,0.46885726,783.69965,817.9487,805.05493,786.9231,933.1868,0.0,0.0,0.1505126953125,0.02667236328125,0.99517822265625,4.029998779296875,-5.615081787109375,0.04486083984375,1437655.6776556775,95868424.9084249,52064249.08424908,68.29012,1.0,2.0,1.0,1.0,2.0,20.0,,0 days 00:00:00.001000
2023-11-09 13:45:15.805,0.77828115,-0.45999447,-0.2932633,1.0917192,0.4452426,-0.17946932,-0.059582748,0.6095256,0.7126295,-0.17112498,-0.24011047,0.9491593,0.9539946,0.2288952,0.4419393,0.9361207,0.5094543,-0.37237933,0.32558092,0.46885726,778.86444,823.5897,826.8132,790.14655,830.84247,0.0,0.0,0.1505126953125,0.02667236328125,0.99517822265625,4.029998779296875,-5.615081787109375,0.04486083984375,1437655.6776556775,95868424.9084249,52064249.08424908,68.29012,1.0,2.0,1.0,1.0,2.0,20.0,,0 days 00:00:00
2023-11-09 13:45:15.806,0.77828115,-0.45999447,-0.2932633,1.0917192,0.4452426,-0.17946932,-0.059582748,0.6095256,0.7126295,-0.17112498,-0.24011047,0.9491593,0.9539946,0.2288952,0.4419393,0.9361207,0.5094543,-0.37237933,0.32558092,0.46885726,791.3553,829.6337,830.4396,788.1319,738.1685,0.0,0.0,0.1505126953125,0.02667236328125,0.99517822265625,4.029998779296875,-5.615081787109375,0.04486083984375,1437655.6776556775,95868424.9084249,52064249.08424908,68.29012,1.0,2.0,1.0,1.0,2.0,20.0,,0 days 00:00:00.001000
2023-11-09 13:45:15.806,0.77828115,-0.45999447,-0.2932633,1.0917192,0.4452426,-0.17946932,-0.059582748,0.6095256,0.7126295,-0.17112498,-0.24011047,0.9491593,0.9539946,0.2288952,0.4419393,0.9361207,0.5094543,-0.37237933,0.32558092,0.46885726,801.8315,823.1868,809.89014,794.57874,785.31134,0.0,0.0,0.1505126953125,0.02667236328125,0.99517822265625,4.029998779296875,-5.615081787109375,0.04486083984375,1437655.6776556775,95868424.9084249,52064249.08424908,68.29012,1.0,2.0,1.0,1.0,2.0,20.0,,0 days 00:00:00
2023-11-09 13:45:15.807,0.77828115,-0.45999447,-0.2932633,1.0917192,0.4452426,-0.17946932,-0.059582748,0.6095256,0.7126295,-0.17112498,-0.24011047,0.9491593,0.9539946,0.2288952,0.4419393,0.9361207,0.5094543,-0.37237933,0.32558092,0.46885726,800.6227,821.978,813.91943,803.0403,838.0952,0.0,0.0,0.1505126953125,0.02667236328125,0.99517822265625,4.029998779296875,-5.615081787109375,0.04486083984375,1437655.6776556775,95868424.9084249,52064249.08424908,68.29012,1.0,2.0,1.0,1.0,2.0,20.0,,0 days 00:00:00.001000
2023-11-09 13:45:15.807,0.77828115,-0.45999447,-0.2932633,1.0917192,0.4452426,-0.17946932,-0.059582748,0.6095256,0.7126295,-0.17112498,-0.24011047,0.9491593,0.9539946,0.2288952,0.4419393,0.9361207,0.5094543,-0.37237933,0.32558092,0.46885726,796.1905,821.1722,825.2015,798.20514,789.34064,0.0,0.0,0.1505126953125,0.02667236328125,0.99517822265625,4.029998779296875,-5.615081787109375,0.04486083984375,1437655.6776556775,95868424.9084249,52064249.08424908,68.29012,1.0,2.0,1.0,1.0,2.0,20.0,,0 days 00:00:00
2023-11-09 13:45:15.840,0.77828115,-0.45999447,-0.2932633,1.0917192,0.4452426,-0.17946932,-0.059582748,0.6095256,0.7126295,-0.17112498,-0.24011047,0.9491593,0.9539946,0.2288952,0.4419393,0.9361207,0.5094543,-0.37237933,0.32558092,0.46885726,791.75824,821.978,817.5458,788.1319,821.1722,0.0,0.0,0.142822265625,0.03411865234375,0.99688720703125,4.0673828125,-6.1309814453125,3.1103515625,1437655.6776556775,95868424.9084249,52064249.08424908,68.29012,1.0,2.0,1.0,1.0,2.0,20.0,,0 days 00:00:00.033000
2023-11-09 13:45:15.841,0.77828115,-0.45999447,-0.2932633,1.0917192,0.4452426,-0.17946932,-0.059582748,0.6095256,0.7126295,-0.17112498,-0.24011047,0.9491593,0.9539946,0.2288952,0.4419393,0.9361207,0.5094543,-0.37237933,0.32558092,0.46885726,803.8461,823.5897,813.1135,795.38464,912.23444,0.0,0.0,0.142822265625,0.03411865234375,0.99688720703125,4.0673828125,-6.1309814453125,3.1103515625,1437655.6776556775,95868424.9084249,52064249.08424908,68.29012,1.0,2.0,1.0,1.0,2.0,20.0,,0 days 00:00:00.001000
2023-11-09 13:45:15.841,0.77828115,-0.45999447,-0.2932633,1.0917192,0.4452426,-0.17946932,-0.059582748,0.6095256,0.7126295,-0.17112498,-0.24011047,0.9491593,0.9539946,0.2288952,0.4419393,0.9361207,0.5094543,-0.37237933,0.32558092,0.46885726,801.4286,821.978,816.7399,799.011,844.5421,0.0,0.0,0.142822265625,0.03411865234375,0.99688720703125,4.0673828125,-6.1309814453125,3.1103515625,1437655.6776556775,95868424.9084249,52064249.08424908,68.29012,1.0,2.0,1.0,1.0,2.0,20.0,,0 days 00:00:00
2023-11-09 13:45:15.841,0.77828115,-0.45999447,-0.2932633,1.0917192,0.4452426,-0.17946932,-0.059582748,0.6095256,0.7126295,-0.17112498,-0.24011047,0.9491593,0.9539946,0.2288952,0.4419393,0.9361207,0.5094543,-0.37237933,0.32558092,0.46885726,807.0696,824.7985,817.9487,796.99634,739.7802,0.0,0.0,0.142822265625,0.03411865234375,0.99688720703125,4.0673828125,-6.1309814453125,3.1103515625,1437655.6776556775,95868424.9084249,52064249.08424908,68.29012,1.0,2.0,1.0,1.0,2.0,20.0,,0 days 00:00:00
2023-11-09 13:45:15.841,0.77828115,-0.45999447,-0.2932633,1.0917192,0.4452426,-0.17946932,-0.059582748,0.6095256,0.7126295,-0.17112498,-0.24011047,0.9491593,0.9539946,0.2288952,0.4419393,0.9361207,0.5094543,-0.37237933,0.32558092,0.46885726,806.26373,821.1722,813.91943,802.6374,731.31866,0.0,0.0,0.142822265625,0.03411865234375,0.99688720703125,4.0673828125,-6.1309814453125,3.1103515625,1437655.6776556775,95868424.9084249,52064249.08424908,68.29012,1.0,2.0,1.0,1.0,2.0,20.0,,0 days 00:00:00
2023-11-09 13:45:15.841,0.77828115,-0.45999447,-0.2932633,1.0917192,0.4452426,-0.17946932,-0.059582748,0.6095256,0.7126295,-0.17112498,-0.24011047,0.9491593,0.9539946,0.2288952,0.4419393,0.9361207,0.5094543,-0.37237933,0.32558092,0.46885726,789.34064,815.12823,807.0696,792.96704,823.9927,0.0,0.0,0.142822265625,0.03411865234375,0.99688720703125,4.0673828125,-6.1309814453125,3.1103515625,1437655.6776556775,95868424.9084249,52064249.08424908,68.29012,1.0,2.0,1.0,1.0,2.0,20.0,,0 days 00:00:00
2023-11-09 13:45:15.842,0.77828115,-0.45999447,-0.2932633,1.0917192,0.4452426,-0.17946932,-0.059582748,0.6095256,0.7126295,-0.17112498,-0.24011047,0.9491593,0.9539946,0.2288952,0.4419393,0.9361207,0.5094543,-0.37237933,0.32558092,0.46885726,785.31134,814.7253,808.68134,783.69965,812.3077,0.0,0.0,0.142822265625,0.03411865234375,0.99688720703125,4.0673828125,-6.1309814453125,3.1103515625,1437655.6776556775,95868424.9084249,52064249.08424908,68.29012,1.0,2.0,1.0,1.0,2.0,20.0,,0 days 00:00:00.001000
2023-11-09 13:45:15.842,0.77828115,-0.45999447,-0.2932633,1.0917192,0.4452426,-0.17946932,-0.059582748,0.6095256,0.7126295,-0.17112498,-0.24011047,0.9491593,0.9539946,0.2288952,0.4419393,0.9361207,0.5094543,-0.37237933,0.32558092,0.46885726,784.5055,821.1722,815.5311,788.5348,734.5421,0.0,0.0,0.142822265625,0.03411865234375,0.99688720703125,4.0673828125,-6.1309814453125,3.1103515625,1437655.6776556775,95868424.9084249,52064249.08424908,68.29012,1.0,2.0,1.0,1.0,2.0,20.0,,0 days 00:00:00
2023-11-09 13:45:15.842,0.77828115,-0.45999447,-0.2932633,1.0917192,0.4452426,-0.17946932,-0.059582748,0.6095256,0.7126295,-0.17112498,-0.24011047,0.9491593,0.9539946,0.2288952,0.4419393,0.9361207,0.5094543,-0.37237933,0.32558092,0.46885726,790.14655,824.7985,813.5165,792.5641,699.0842,0.0,0.0,0.142822265625,0.03411865234375,0.99688720703125,4.0673828125,-6.1309814453125,3.1103515625,1437655.6776556775,95868424.9084249,52064249.08424908,68.29012,1.0,2.0,1.0,1.0,2.0,20.0,,0 days 00:00:00
2023-11-09 13:45:15.842,0.77828115,-0.45999447,-0.2932633,1.0917192,0.4452426,-0.17946932,-0.059582748,0.6095256,0.7126295,-0.17112498,-0.24011047,0.9491593,0.9539946,0.2288952,0.4419393,0.9361207,0.5094543,-0.37237933,0.32558092,0.46885726,803.8461,817.1429,805.4579,803.44324,925.5311,0.0,0.0,0.142822265625,0.03411865234375,0.99688720703125,4.0673828125,-6.1309814453125,3.1103515625,1437655.6776556775,95868424.9084249,52064249.08424908,68.29012,1.0,2.0,1.0,1.0,2.0,20.0,,0 days 00:00:00
2023-11-09 13:45:15.842,0.77828115,-0.45999447,-0.2932633,1.0917192,0.4452426,-0.17946932,-0.059582748,0.6095256,0.7126295,-0.17112498,-0.24011047,0.9491593,0.9539946,0.2288952,0.4419393,0.9361207,0.5094543,-0.37237933,0.32558092,0.46885726,797.8022,816.7399,810.696,810.696,1046.4103,0.0,0.0,0.142822265625,0.03411865234375,0.99688720703125,4.0673828125,-6.1309814453125,3.1103515625,1437655.6776556775,95868424.9084249,52064249.08424908,68.29012,1.0,2.0,1.0,1.0,2.0,20.0,,0 days 00:00:00
2023-11-09 13:45:15.843,0.77828115,-0.45999447,-0.2932633,1.0917192,0.4452426,-0.17946932,-0.059582748,0.6095256,0.7126295,-0.17112498,-0.24011047,0.9491593,0.9539946,0.2288952,0.4419393,0.9361207,0.5094543,-0.37237933,0.32558092,0.46885726,797.8022,831.6484,825.2015,797.8022,777.25275,0.0,0.0,0.142822265625,0.03411865234375,0.99688720703125,4.0673828125,-6.1309814453125,3.1103515625,1437655.6776556775,95868424.9084249,52064249.08424908,68.29012,1.0,2.0,1.0,1.0,2.0,20.0,,0 days 00:00:00.001000
2023-11-09 13:45:15.908,0.77828115,-0.45999447,-0.2932633,1.0917192,0.4452426,-0.17946932,-0.059582748,0.6095256,0.7126295,-0.17112498,-0.24011047,0.9491593,0.9539946,0.2288952,0.4419393,0.9361207,0.5094543,-0.37237933,0.32558092,0.46885726,804.65204,829.6337,815.12823,794.9817,777.25275,0.0,0.0,0.142822265625,0.03411865234375,0.99688720703125,4.0673828125,-6.1309814453125,3.1103515625,1433626.3736263737,95950622.71062271,52070695.97069597,68.29012,1.0,2.0,1.0,1.0,2.0,20.0,,0 days 00:00:00.065000
2023-11-09 13:45:15.908,0.77828115,-0.45999447,-0.2932633,1.0917192,0.4452426,-0.17946932,-0.059582748,0.6095256,0.7126295,-0.17112498,-0.24011047,0.9491593,0.9539946,0.2288952,0.4419393,0.9361207,0.5094543,-0.37237933,0.32558092,0.46885726,797.8022,825.6044,800.2198,790.54944,831.2454,0.0,0.0,0.142822265625,0.03411865234375,0.99688720703125,4.0673828125,-6.1309814453125,3.1103515625,1433626.3736263737,95950622.71062271,52070695.97069597,68.29012,1.0,2.0,1.0,1.0,2.0,20.0,,0 days 00:00:00
2023-11-09 13:45:15.909,0.77828115,-0.45999447,-0.2932633,1.0917192,0.4452426,-0.17946932,-0.059582748,0.6095256,0.7126295,-0.17112498,-0.24011047,0.9491593,0.9539946,0.2288952,0.4419393,0.9361207,0.5094543,-0.37237933,0.32558092,0.46885726,791.3553,826.8132,809.4872,790.14655,795.38464,0.0,0.0,0.142822265625,0.03411865234375,0.99688720703125,4.0673828125,-6.1309814453125,3.1103515625,1433626.3736263737,95950622.71062271,52070695.97069597,68.29012,1.0,2.0,1.0,1.0,2.0,20.0,,0 days 00:00:00.001000
2023-11-09 13:45:15.909,0.77828115,-0.45999447,-0.2932633,1.0917192,0.4452426,-0.17946932,-0.059582748,0.6095256,0.7126295,-0.17112498,-0.24011047,0.9491593,0.9539946,0.2288952,0.4419393,0.9361207,0.5094543,-0.37237933,0.32558092,0.46885726,787.72894,829.2308,818.7546,788.1319,742.6007,0.0,0.0,0.142822265625,0.03411865234375,0.99688720703125,4.0673828125,-6.1309814453125,3.1103515625,1433626.3736263737,95950622.71062271,52070695.97069597,68.29012,1.0,2.0,1.0,1.0,2.0,20.0,,0 days 00:00:00
2023-11-09 13:45:15.909,0.77828115,-0.45999447,-0.2932633,1.0917192,0.4452426,-0.17946932,-0.059582748,0.6095256,0.7126295,-0.17112498,-0.24011047,0.9491593,0.9539946,0.2288952,0.4419393,0.9361207,0.5094543,-0.37237933,0.32558092,0.46885726,780.07324,824.3956,805.05493,780.07324,765.56775,0.0,0.0,0.142822265625,0.03411865234375,0.99688720703125,4.0673828125,-6.1309814453125,3.1103515625,1433626.3736263737,95950622.71062271,52070695.97069597,68.29012,1.0,2.0,1.0,1.0,2.0,20.0,,0 days 00:00:00
2023-11-09 13:45:15.909,0.77828115,-0.07513782,-0.2932633,0.6785676,0.4452426,-0.4265558,-0.059582748,0.3393175,0.7126295,-0.14216667,-0.24011047,0.4855271,0.9539946,0.2565012,0.4419393,0.89550024,0.5094543,-0.15633333,0.32558092,0.455332,769.19415,811.0989,800.6227,797.8022,966.63007,0.0,0.0,0.142822265625,0.03411865234375,0.99688720703125,4.0673828125,-6.1309814453125,3.1103515625,1433626.3736263737,95950622.71062271,52070695.97069597,68.29012,1.0,2.0,1.0,1.0,2.0,20.0,,0 days 00:00:00
2023-11-09 13:45:15.910,0.77828115,-0.07513782,-0.2932633,0.6785676,0.4452426,-0.4265558,-0.059582748,0.3393175,0.7126295,-0.14216667,-0.24011047,0.4855271,0.9539946,0.2565012,0.4419393,0.89550024,0.5094543,-0.15633333,0.32558092,0.455332,766.77655,827.2161,817.9487,805.05493,857.03296,0.0,0.0,0.142822265625,0.03411865234375,0.99688720703125,4.0673828125,-6.1309814453125,3.1103515625,1433626.3736263737,95950622.71062271,52070695.97069597,68.29012,1.0,2.0,1.0,1.0,2.0,20.0,,0 days 00:00:00.001000
2023-11-09 13:45:15.911,0.77828115,-0.07513782,-0.2932633,0.6785676,0.4452426,-0.4265558,-0.059582748,0.3393175,0.7126295,-0.14216667,-0.24011047,0.4855271,0.9539946,0.2565012,0.4419393,0.89550024,0.5094543,-0.15633333,0.32558092,0.455332,782.0879,840.9158,807.0696,790.54944,668.0586,0.0,0.0,0.142822265625,0.03411865234375,0.99688720703125,4.0673828125,-6.1309814453125,3.1103515625,1433626.3736263737,95950622.71062271,52070695.97069597,68.29012,1.0,2.0,1.0,1.0,2.0,20.0,,0 days 00:00:00.001000
2023-11-09 13:45:15.911,0.77828115,-0.07513782,-0.2932633,0.6785676,0.4452426,-0.4265558,-0.059582748,0.3393175,0.7126295,-0.14216667,-0.24011047,0.4855271,0.9539946,0.2565012,0.4419393,0.89550024,0.5094543,-0.15633333,0.32558092,0.455332,792.1612,827.619,799.81683,798.20514,802.6374,0.0,0.0,0.142822265625,0.03411865234375,0.99688720703125,4.0673828125,-6.1309814453125,3.1103515625,1433626.3736263737,95950622.71062271,52070695.97069597,68.29012,1.0,2.0,1.0,1.0,2.0,20.0,,0 days 00:00:00
2023-11-09 13:45:15.911,0.77828115,-0.07513782,-0.2932633,0.6785676,0.4452426,-0.4265558,-0.059582748,0.3393175,0.7126295,-0.14216667,-0.24011047,0.4855271,0.9539946,0.2565012,0.4419393,0.89550024,0.5094543,-0.15633333,0.32558092,0.455332,782.8938,823.9927,821.1722,810.696,894.90845,0.0,0.0,0.142822265625,0.03411865234375,0.99688720703125,4.0673828125,-6.1309814453125,3.1103515625,1433626.3736263737,95950622.71062271,52070695.97069597,68.29012,1.0,2.0,1.0,1.0,2.0,20.0,,0 days 00:00:00
2023-11-09 13:45:15.911,0.77828115,-0.07513782,-0.2932633,0.6785676,0.4452426,-0.4265558,-0.059582748,0.3393175,0.7126295,-0.14216667,-0.24011047,0.4855271,0.9539946,0.2565012,0.4419393,0.89550024,0.5094543,-0.15633333,0.32558092,0.455332,782.49084,835.6777,837.28937,801.4286,743.4066,0.0,0.0,0.142822265625,0.03411865234375,0.99688720703125,4.0673828125,-6.1309814453125,3.1103515625,1433626.3736263737,95950622.71062271,52070695.97069597,68.29012,1.0,2.0,1.0,1.0,2.0,20.0,,0 days 00:00:00
2023-11-09 13:45:15.911,0.77828115,-0.07513782,-0.2932633,0.6785676,0.4452426,-0.4265558,-0.059582748,0.3393175,0.7126295,-0.14216667,-0.24011047,0.4855271,0.9539946,0.2565012,0.4419393,0.89550024,0.5094543,-0.15633333,0.32558092,0.455332,788.1319,836.4835,826.8132,786.9231,732.1245,0.0,0.0,0.142822265625,0.03411865234375,0.99688720703125,4.0673828125,-6.1309814453125,3.1103515625,1433626.3736263737,95950622.71062271,52070695.97069597,68.29012,1.0,2.0,1.0,1.0,2.0,20.0,,0 days 00:00:00
2023-11-09 13:45:15.939,0.77828115,-0.07513782,-0.2932633,0.6785676,0.4452426,-0.4265558,-0.059582748,0.3393175,0.7126295,-0.14216667,-0.24011047,0.4855271,0.9539946,0.2565012,0.4419393,0.89550024,0.5094543,-0.15633333,0.32558092,0.455332,790.54944,828.022,815.9341,781.685,766.77655,0.0,0.0,0.133056640625,0.02789306640625,1.00213623046875,3.2000732421875,-6.093597412109375,1.92901611328125,1433626.3736263737,95950622.71062271,52070695.97069597,68.29012,1.0,2.0,1.0,1.0,2.0,20.0,,0 days 00:00:00.028000
2023-11-09 13:45:15.939,0.77828115,-0.07513782,-0.2932633,0.6785676,0.4452426,-0.4265558,-0.059582748,0.3393175,0.7126295,-0.14216667,-0.24011047,0.4855271,0.9539946,0.2565012,0.4419393,0.89550024,0.5094543,-0.15633333,0.32558092,0.455332,793.7729,829.2308,809.89014,789.7436,784.90845,0.0,0.0,0.133056640625,0.02789306640625,1.00213623046875,3.2000732421875,-6.093597412109375,1.92901611328125,1433626.3736263737,95950622.71062271,52070695.97069597,68.29012,1.0,2.0,1.0,1.0,2.0,20.0,,0 days 00:00:00
2023-11-09 13:45:15.939,0.77828115,-0.07513782,-0.2932633,0.6785676,0.4452426,-0.4265558,-0.059582748,0.3393175,0.7126295,-0.14216667,-0.24011047,0.4855271,0.9539946,0.2565012,0.4419393,0.89550024,0.5094543,-0.15633333,0.32558092,0.455332,787.326,829.2308,812.71063,787.326,740.989,0.0,0.0,0.133056640625,0.02789306640625,1.00213623046875,3.2000732421875,-6.093597412109375,1.92901611328125,1433626.3736263737,95950622.71062271,52070695.97069597,68.29012,1.0,2.0,1.0,1.0,2.0,20.0,,0 days 00:00:00
2023-11-09 13:45:15.940,0.77828115,-0.07513782,-0.2932633,0.6785676,0.4452426,-0.4265558,-0.059582748,0.3393175,0.7126295,-0.14216667,-0.24011047,0.4855271,0.9539946,0.2565012,0.4419393,0.89550024,0.5094543,-0.15633333,0.32558092,0.455332,786.9231,824.3956,823.1868,787.72894,740.989,0.0,0.0,0.133056640625,0.02789306640625,1.00213623046875,3.2000732421875,-6.093597412109375,1.92901611328125,1433626.3736263737,95950622.71062271,52070695.97069597,68.29012,1.0,2.0,1.0,1.0,2.0,20.0,,0 days 00:00:00.001000
2023-11-09 13:45:15.940,0.77828115,-0.07513782,-0.2932633,0.6785676,0.4452426,-0.4265558,-0.059582748,0.3393175,0.7126295,-0.14216667,-0.24011047,0.4855271,0.9539946,0.2565012,0.4419393,0.89550024,0.5094543,-0.15633333,0.32558092,0.455332,785.31134,823.9927,822.381,802.6374,815.5311,0.0,0.0,0.133056640625,0.02789306640625,1.00213623046875,3.2000732421875,-6.093597412109375,1.92901611328125,1433626.3736263737,95950622.71062271,52070695.97069597,68.29012,1.0,2.0,1.0,1.0,2.0,20.0,,0 days 00:00:00
2023-11-09 13:45:15.940,0.77828115,-0.07513782,-0.2932633,0.6785676,0.4452426,-0.4265558,-0.059582748,0.3393175,0.7126295,-0.14216667,-0.24011047,0.4855271,0.9539946,0.2565012,0.4419393,0.89550024,0.5094543,-0.15633333,0.32558092,0.455332,777.25275,824.3956,820.3663,802.6374,846.1539,0.0,0.0,0.133056640625,0.02789306640625,1.00213623046875,3.2000732421875,-6.093597412109375,1.92901611328125,1433626.3736263737,95950622.71062271,52070695.97069597,68.29012,1.0,2.0,1.0,1.0,2.0,20.0,,0 days 00:00:00
2023-11-09 13:45:15.940,0.77828115,-0.07513782,-0.2932633,0.6785676,0.4452426,-0.4265558,-0.059582748,0.3393175,0.7126295,-0.14216667,-0.24011047,0.4855271,0.9539946,0.2565012,0.4419393,0.89550024,0.5094543,-0.15633333,0.32558092,0.455332,781.685,825.6044,808.2784,811.9048,838.9011,0.0,0.0,0.133056640625,0.02789306640625,1.00213623046875,3.2000732421875,-6.093597412109375,1.92901611328125,1433626.3736263737,95950622.71062271,52070695.97069597,68.29012,1.0,2.0,1.0,1.0,2.0,20.0,,0 days 00:00:00
2023-11-09 13:45:15.940,0.77828115,-0.07513782,-0.2932633,0.6785676,0.4452426,-0.4265558,-0.059582748,0.3393175,0.7126295,-0.14216667,-0.24011047,0.4855271,0.9539946,0.2565012,0.4419393,0.89550024,0.5094543,-0.15633333,0.32558092,0.455332,776.8498,828.022,799.81683,809.89014,780.4762,0.0,0.0,0.133056640625,0.02789306640625,1.00213623046875,3.2000732421875,-6.093597412109375,1.92901611328125,1433626.3736263737,95950622.71062271,52070695.97069597,68.29012,1.0,2.0,1.0,1.0,2.0,20.0,,0 days 00:00:00
2023-11-09 13:45:15.941,0.77828115,-0.07513782,-0.2932633,0.6785676,0.4452426,-0.4265558,-0.059582748,0.3393175,0.7126295,-0.14216667,-0.24011047,0.4855271,0.9539946,0.2565012,0.4419393,0.89550024,0.5094543,-0.15633333,0.32558092,0.455332,784.90845,823.1868,800.2198,813.91943,930.3663,0.0,0.0,0.133056640625,0.02789306640625,1.00213623046875,3.2000732421875,-6.093597412109375,1.92901611328125,1433626.3736263737,95950622.71062271,52070695.97069597,68.29012,1.0,2.0,1.0,1.0,2.0,20.0,,0 days 00:00:00.001000
2023-11-09 13:45:15.941,0.77828115,-0.07513782,-0.2932633,0.6785676,0.4452426,-0.4265558,-0.059582748,0.3393175,0.7126295,-0.14216667,-0.24011047,0.4855271,0.9539946,0.2565012,0.4419393,0.89550024,0.5094543,-0.15633333,0.32558092,0.455332,786.1172,816.337,801.02563,828.022,1068.1685,0.0,0.0,0.133056640625,0.02789306640625,1.00213623046875,3.2000732421875,-6.093597412109375,1.92901611328125,1433626.3736263737,95950622.71062271,52070695.97069597,68.29012,1.0,2.0,1.0,1.0,2.0,20.0,,0 days 00:00:00
2023-11-09 13:45:15.941,0.77828115,-0.07513782,-0.2932633,0.6785676,0.4452426,-0.4265558,-0.059582748,0.3393175,0.7126295,-0.14216667,-0.24011047,0.4855271,0.9539946,0.2565012,0.4419393,0.89550024,0.5094543,-0.15633333,0.32558092,0.455332,781.685,830.4396,821.1722,805.4579,872.3443,0.0,0.0,0.133056640625,0.02789306640625,1.00213623046875,3.2000732421875,-6.093597412109375,1.92901611328125,1433626.3736263737,95950622.71062271,52070695.97069597,68.29012,1.0,2.0,1.0,1.0,2.0,20.0,,0 days 00:00:00
2023-11-09 13:45:15.941,0.77828115,-0.07513782,-0.2932633,0.6785676,0.4452426,-0.4265558,-0.059582748,0.3393175,0.7126295,-0.14216667,-0.24011047,0.4855271,0.9539946,0.2565012,0.4419393,0.89550024,0.5094543,-0.15633333,0.32558092,0.455332,786.1172,835.2747,826.4103,799.81683,804.65204,0.0,0.0,0.133056640625,0.02789306640625,1.00213623046875,3.2000732421875,-6.093597412109375,1.92901611328125,1433626.3736263737,95950622.71062271,52070695.97069597,68.29012,1.0,2.0,1.0,1.0,2.0,20.0,,0 days 00:00:00
2023-11-09 13:45:15.973,0.77828115,-0.07513782,-0.2932633,0.6785676,0.4452426,-0.4265558,-0.059582748,0.3393175,0.7126295,-0.14216667,-0.24011047,0.4855271,0.9539946,0.2565012,0.4419393,0.89550024,0.5094543,-0.15633333,0.32558092,0.455332,792.96704,828.8278,820.3663,808.2784,800.2198,0.0,0.0,0.1395263671875,0.029052734375,0.9959716796875,1.996307373046875,-5.824432373046875,-0.381317138671875,1434432.2344322344,95965934.06593406,52071501.83150183,68.29012,1.0,2.0,1.0,1.0,2.0,20.0,,0 days 00:00:00.032000
2023-11-09 13:45:15.974,0.77828115,-0.07513782,-0.2932633,0.6785676,0.4452426,-0.4265558,-0.059582748,0.3393175,0.7126295,-0.14216667,-0.24011047,0.4855271,0.9539946,0.2565012,0.4419393,0.89550024,0.5094543,-0.15633333,0.32558092,0.455332,785.31134,828.4249,821.1722,791.75824,747.03296,0.0,0.0,0.1395263671875,0.029052734375,0.9959716796875,1.996307373046875,-5.824432373046875,-0.381317138671875,1434432.2344322344,95965934.06593406,52071501.83150183,68.29012,1.0,2.0,1.0,1.0,2.0,20.0,,0 days 00:00:00.001000
2023-11-09 13:45:15.974,0.77828115,-0.07513782,-0.2932633,0.6785676,0.4452426,-0.4265558,-0.059582748,0.3393175,0.7126295,-0.14216667,-0.24011047,0.4855271,0.9539946,0.2565012,0.4419393,0.89550024,0.5094543,-0.15633333,0.32558092,0.455332,774.83514,827.619,811.0989,788.93774,771.6117,0.0,0.0,0.1395263671875,0.029052734375,0.9959716796875,1.996307373046875,-5.824432373046875,-0.381317138671875,1434432.2344322344,95965934.06593406,52071501.83150183,68.29012,1.0,2.0,1.0,1.0,2.0,20.0,,0 days 00:00:00
2023-11-09 13:45:15.974,0.77828115,-0.07513782,-0.2932633,0.6785676,0.4452426,-0.4265558,-0.059582748,0.3393175,0.7126295,-0.14216667,-0.24011047,0.4855271,0.9539946,0.2565012,0.4419393,0.89550024,0.5094543,-0.15633333,0.32558092,0.455332,783.2967,824.7985,807.0696,806.6667,779.67035,0.0,0.0,0.1395263671875,0.029052734375,0.9959716796875,1.996307373046875,-5.824432373046875,-0.381317138671875,1434432.2344322344,95965934.06593406,52071501.83150183,68.29012,1.0,2.0,1.0,1.0,2.0,20.0,,0 days 00:00:00
2023-11-09 13:45:15.974,0.77828115,-0.07513782,-0.2932633,0.6785676,0.4452426,-0.4265558,-0.059582748,0.3393175,0.7126295,-0.14216667,-0.24011047,0.4855271,0.9539946,0.2565012,0.4419393,0.89550024,0.5094543,-0.15633333,0.32558092,0.455332,788.5348,823.1868,811.9048,802.23444,745.82416,0.0,0.0,0.1395263671875,0.029052734375,0.9959716796875,1.996307373046875,-5.824432373046875,-0.381317138671875,1434432.2344322344,95965934.06593406,52071501.83150183,68.29012,1.0,2.0,1.0,1.0,2.0,20.0,,0 days 00:00:00
2023-11-09 13:45:15.975,0.77828115,-0.07513782,-0.2932633,0.6785676,0.4452426,-0.4265558,-0.059582748,0.3393175,0.7126295,-0.14216667,-0.24011047,0.4855271,0.9539946,0.2565012,0.4419393,0.89550024,0.5094543,-0.15633333,0.32558092,0.455332,788.93774,827.619,805.4579,789.34064,776.4469,0.0,0.0,0.1395263671875,0.029052734375,0.9959716796875,1.996307373046875,-5.824432373046875,-0.381317138671875,1434432.2344322344,95965934.06593406,52071501.83150183,68.29012,1.0,2.0,1.0,1.0,2.0,20.0,,0 days 00:00:00.001000
2023-11-09 13:45:15.975,0.77828115,-0.07513782,-0.2932633,0.6785676,0.4452426,-0.4265558,-0.059582748,0.3393175,0.7126295,-0.14216667,-0.24011047,0.4855271,0.9539946,0.2565012,0.4419393,0.89550024,0.5094543,-0.15633333,0.32558092,0.455332,786.52014,829.2308,813.1135,794.57874,792.5641,0.0,0.0,0.1395263671875,0.029052734375,0.9959716796875,1.996307373046875,-5.824432373046875,-0.381317138671875,1434432.2344322344,95965934.06593406,52071501.83150183,68.29012,1.0,2.0,1.0,1.0,2.0,20.0,,0 days 00:00:00
2023-11-09 13:45:15.975,0.80637187,-0.070875,0.3955477,0.72470355,0.46770456,-0.33048806,-0.06985492,0.3170873,0.67408144,-0.06062131,0.11792027,0.4855271,0.5817527,0.23420466,0.49778304,0.8725568,0.2020977,-0.18954498,0.44057006,0.4510306,788.1319,821.5751,814.3223,807.0696,847.3626,0.0,0.0,0.1395263671875,0.029052734375,0.9959716796875,1.996307373046875,-5.824432373046875,-0.381317138671875,1434432.2344322344,95965934.06593406,52071501.83150183,68.29012,1.0,1.0,1.0,1.0,1.0,20.0,,0 days 00:00:00
2023-11-09 13:45:15.976,0.80637187,-0.070875,0.3955477,0.72470355,0.46770456,-0.33048806,-0.06985492,0.3170873,0.67408144,-0.06062131,0.11792027,0.4855271,0.5817527,0.23420466,0.49778304,0.8725568,0.2020977,-0.18954498,0.44057006,0.4510306,790.14655,815.5311,792.5641,807.8755,995.2381,0.0,0.0,0.1395263671875,0.029052734375,0.9959716796875,1.996307373046875,-5.824432373046875,-0.381317138671875,1434432.2344322344,95965934.06593406,52071501.83150183,68.29012,1.0,1.0,1.0,1.0,1.0,20.0,,0 days 00:00:00.001000
2023-11-09 13:45:15.976,0.80637187,-0.070875,0.3955477,0.72470355,0.46770456,-0.33048806,-0.06985492,0.3170873,0.67408144,-0.06062131,0.11792027,0.4855271,0.5817527,0.23420466,0.49778304,0.8725568,0.2020977,-0.18954498,0.44057006,0.4510306,782.49084,827.2161,808.68134,789.34064,840.5128,0.0,0.0,0.1395263671875,0.029052734375,0.9959716796875,1.996307373046875,-5.824432373046875,-0.381317138671875,1434432.2344322344,95965934.06593406,52071501.83150183,68.29012,1.0,1.0,1.0,1.0,1.0,20.0,,0 days 00:00:00
2023-11-09 13:45:15.976,0.80637187,-0.070875,0.3955477,0.72470355,0.46770456,-0.33048806,-0.06985492,0.3170873,0.67408144,-0.06062131,0.11792027,0.4855271,0.5817527,0.23420466,0.49778304,0.8725568,0.2020977,-0.18954498,0.44057006,0.4510306,779.2674,830.84247,828.022,780.07324,663.6264,0.0,0.0,0.1395263671875,0.029052734375,0.9959716796875,1.996307373046875,-5.824432373046875,-0.381317138671875,1434432.2344322344,95965934.06593406,52071501.83150183,68.29012,1.0,1.0,1.0,1.0,1.0,20.0,,0 days 00:00:00
2023-11-09 13:45:15.977,0.80637187,-0.070875,0.3955477,0.72470355,0.46770456,-0.33048806,-0.06985492,0.3170873,0.67408144,-0.06062131,0.11792027,0.4855271,0.5817527,0.23420466,0.49778304,0.8725568,0.2020977,-0.18954498,0.44057006,0.4510306,796.1905,816.7399,820.3663,797.8022,763.5531,0.0,0.0,0.1395263671875,0.029052734375,0.9959716796875,1.996307373046875,-5.824432373046875,-0.381317138671875,1434432.2344322344,95965934.06593406,52071501.83150183,68.29012,1.0,1.0,1.0,1.0,1.0,20.0,,0 days 00:00:00.001000
2023-11-09 13:45:16.067,0.80637187,-0.070875,0.3955477,0.72470355,0.46770456,-0.33048806,-0.06985492,0.3170873,0.67408144,-0.06062131,0.11792027,0.4855271,0.5817527,0.23420466,0.49778304,0.8725568,0.2020977,-0.18954498,0.44057006,0.4510306,796.1905,817.1429,820.3663,805.4579,818.7546,0.0,0.0,0.1654052734375,0.02490234375,0.996826171875,1.95892333984375,-4.149627685546875,-1.876678466796875,1434432.2344322344,95965934.06593406,52071501.83150183,68.29012,1.0,1.0,1.0,1.0,1.0,20.0,,0 days 00:00:00.090000
2023-11-09 13:45:16.068,0.80637187,-0.070875,0.3955477,0.72470355,0.46770456,-0.33048806,-0.06985492,0.3170873,0.67408144,-0.06062131,0.11792027,0.4855271,0.5817527,0.23420466,0.49778304,0.8725568,0.2020977,-0.18954498,0.44057006,0.4510306,782.49084,823.1868,820.3663,794.9817,714.3956,0.0,0.0,0.1654052734375,0.02490234375,0.996826171875,1.95892333984375,-4.149627685546875,-1.876678466796875,1434432.2344322344,95965934.06593406,52071501.83150183,68.29012,1.0,1.0,1.0,1.0,1.0,20.0,,0 days 00:00:00.001000
2023-11-09 13:45:16.069,0.80637187,-0.070875,0.3955477,0.72470355,0.46770456,-0.33048806,-0.06985492,0.3170873,0.67408144,-0.06062131,0.11792027,0.4855271,0.5817527,0.23420466,0.49778304,0.8725568,0.2020977,-0.18954498,0.44057006,0.4510306,777.6557,823.5897,817.5458,803.0403,712.7839,0.0,0.0,0.1654052734375,0.02490234375,0.996826171875,1.95892333984375,-4.149627685546875,-1.876678466796875,1434432.2344322344,95965934.06593406,52071501.83150183,68.29012,1.0,1.0,1.0,1.0,1.0,20.0,,0 days 00:00:00.001000
2023-11-09 13:45:16.069,0.80637187,-0.070875,0.3955477,0.72470355,0.46770456,-0.33048806,-0.06985492,0.3170873,0.67408144,-0.06062131,0.11792027,0.4855271,0.5817527,0.23420466,0.49778304,0.8725568,0.2020977,-0.18954498,0.44057006,0.4510306,780.87915,825.2015,813.1135,800.6227,717.2161,0.0,0.0,0.1654052734375,0.02490234375,0.996826171875,1.95892333984375,-4.149627685546875,-1.876678466796875,1434432.2344322344,95965934.06593406,52071501.83150183,68.29012,1.0,1.0,1.0,1.0,1.0,20.0,,0 days 00:00:00
2023-11-09 13:45:16.070,0.80637187,-0.070875,0.3955477,0.72470355,0.46770456,-0.33048806,-0.06985492,0.3170873,0.67408144,-0.06062131,0.11792027,0.4855271,0.5817527,0.23420466,0.49778304,0.8725568,0.2020977,-0.18954498,0.44057006,0.4510306,789.34064,824.7985,807.0696,788.1319,755.4945,0.0,0.0,0.1654052734375,0.02490234375,0.996826171875,1.95892333984375,-4.149627685546875,-1.876678466796875,1434432.2344322344,95965934.06593406,52071501.83150183,68.29012,1.0,1.0,1.0,1.0,1.0,20.0,,0 days 00:00:00.001000
2023-11-09 13:45:16.070,0.80637187,-0.070875,0.3955477,0.72470355,0.46770456,-0.33048806,-0.06985492,0.3170873,0.67408144,-0.06062131,0.11792027,0.4855271,0.5817527,0.23420466,0.49778304,0.8725568,0.2020977,-0.18954498,0.44057006,0.4510306,788.93774,822.381,818.7546,804.65204,782.49084,0.0,0.0,0.1654052734375,0.02490234375,0.996826171875,1.95892333984375,-4.149627685546875,-1.876678466796875,1434432.2344322344,95965934.06593406,52071501.83150183,68.29012,1.0,1.0,1.0,1.0,1.0,20.0,,0 days 00:00:00
2023-11-09 13:45:16.070,0.80637187,-0.070875,0.3955477,0.72470355,0.46770456,-0.33048806,-0.06985492,0.3170873,0.67408144,-0.06062131,0.11792027,0.4855271,0.5817527,0.23420466,0.49778304,0.8725568,0.2020977,-0.18954498,0.44057006,0.4510306,780.87915,828.4249,822.7839,815.12823,740.58606,0.0,0.0,0.1654052734375,0.02490234375,0.996826171875,1.95892333984375,-4.149627685546875,-1.876678466796875,1434432.2344322344,95965934.06593406,52071501.83150183,68.29012,1.0,1.0,1.0,1.0,1.0,20.0,,0 days 00:00:00
2023-11-09 13:45:16.071,0.80637187,-0.070875,0.3955477,0.72470355,0.46770456,-0.33048806,-0.06985492,0.3170873,0.67408144,-0.06062131,0.11792027,0.4855271,0.5817527,0.23420466,0.49778304,0.8725568,0.2020977,-0.18954498,0.44057006,0.4510306,787.72894,824.3956,815.12823,819.5604,1016.1905,0.0,0.0,0.1654052734375,0.02490234375,0.996826171875,1.95892333984375,-4.149627685546875,-1.876678466796875,1434432.2344322344,95965934.06593406,52071501.83150183,68.29012,1.0,1.0,1.0,1.0,1.0,20.0,,0 days 00:00:00.001000
2023-11-09 13:45:16.071,0.80637187,-0.070875,0.3955477,0.72470355,0.46770456,-0.33048806,-0.06985492,0.3170873,0.67408144,-0.06062131,0.11792027,0.4855271,0.5817527,0.23420466,0.49778304,0.8725568,0.2020977,-0.18954498,0.44057006,0.4510306,792.5641,821.1722,820.7692,811.50183,1086.3004,0.0,0.0,0.1654052734375,0.02490234375,0.996826171875,1.95892333984375,-4.149627685546875,-1.876678466796875,1434432.2344322344,95965934.06593406,52071501.83150183,68.29012,1.0,1.0,1.0,1.0,1.0,20.0,,0 days 00:00:00
2023-11-09 13:45:16.072,0.80637187,-0.070875,0.3955477,0.72470355,0.46770456,-0.33048806,-0.06985492,0.3170873,0.67408144,-0.06062131,0.11792027,0.4855271,0.5817527,0.23420466,0.49778304,0.8725568,0.2020977,-0.18954498,0.44057006,0.4510306,781.685,835.2747,826.8132,784.10254,821.5751,0.0,0.0,0.1654052734375,0.02490234375,0.996826171875,1.95892333984375,-4.149627685546875,-1.876678466796875,1434432.2344322344,95965934.06593406,52071501.83150183,68.29012,1.0,1.0,1.0,1.0,1.0,20.0,,0 days 00:00:00.001000
2023-11-09 13:45:16.072,0.80637187,-0.070875,0.3955477,0.72470355,0.46770456,-0.33048806,-0.06985492,0.3170873,0.67408144,-0.06062131,0.11792027,0.4855271,0.5817527,0.23420466,0.49778304,0.8725568,0.2020977,-0.18954498,0.44057006,0.4510306,771.6117,829.6337,822.7839,796.5934,783.2967,0.0,0.0,0.1654052734375,0.02490234375,0.996826171875,1.95892333984375,-4.149627685546875,-1.876678466796875,1434432.2344322344,95965934.06593406,52071501.83150183,68.29012,1.0,1.0,1.0,1.0,1.0,20.0,,0 days 00:00:00
2023-11-09 13:45:16.073,0.80637187,-0.070875,0.3955477,0.72470355,0.46770456,-0.33048806,-0.06985492,0.3170873,0.67408144,-0.06062131,0.11792027,0.4855271,0.5817527,0.23420466,0.49778304,0.8725568,0.2020977,-0.18954498,0.44057006,0.4510306,783.2967,824.3956,820.3663,806.6667,840.9158,0.0,0.0,0.1654052734375,0.02490234375,0.996826171875,1.95892333984375,-4.149627685546875,-1.876678466796875,1434432.2344322344,95965934.06593406,52071501.83150183,68.29012,1.0,1.0,1.0,1.0,1.0,20.0,,0 days 00:00:00.001000
2023-11-09 13:45:16.076,0.80637187,-0.070875,0.3955477,0.72470355,0.46770456,-0.33048806,-0.06985492,0.3170873,0.67408144,-0.06062131,0.11792027,0.4855271,0.5817527,0.23420466,0.49778304,0.8725568,0.2020977,-0.18954498,0.44057006,0.4510306,789.34064,830.4396,820.3663,798.20514,773.22345,0.0,0.0,0.15472412109375,0.01617431640625,1.01239013671875,2.04864501953125,-4.725341796875,-1.592559814453125,1435238.0952380951,95981245.42124544,52077948.71794872,68.29012,1.0,1.0,1.0,1.0,1.0,20.0,,0 days 00:00:00.003000
2023-11-09 13:45:16.077,0.80637187,-0.070875,0.3955477,0.72470355,0.46770456,-0.33048806,-0.06985492,0.3170873,0.67408144,-0.06062131,0.11792027,0.4855271,0.5817527,0.23420466,0.49778304,0.8725568,0.2020977,-0.18954498,0.44057006,0.4510306,790.54944,830.84247,823.5897,797.8022,678.93774,0.0,0.0,0.15472412109375,0.01617431640625,1.01239013671875,2.04864501953125,-4.725341796875,-1.592559814453125,1435238.0952380951,95981245.42124544,52077948.71794872,68.29012,1.0,1.0,1.0,1.0,1.0,20.0,,0 days 00:00:00.001000
2023-11-09 13:45:16.077,0.80637187,-0.070875,0.3955477,0.72470355,0.46770456,-0.33048806,-0.06985492,0.3170873,0.67408144,-0.06062131,0.11792027,0.4855271,0.5817527,0.23420466,0.49778304,0.8725568,0.2020977,-0.18954498,0.44057006,0.4510306,790.9524,823.1868,823.1868,799.81683,783.69965,0.0,0.0,0.15472412109375,0.01617431640625,1.01239013671875,2.04864501953125,-4.725341796875,-1.592559814453125,1435238.0952380951,95981245.42124544,52077948.71794872,68.29012,1.0,1.0,1.0,1.0,1.0,20.0,,0 days 00:00:00
2023-11-09 13:45:16.078,0.80637187,-0.070875,0.3955477,0.72470355,0.46770456,-0.33048806,-0.06985492,0.3170873,0.67408144,-0.06062131,0.11792027,0.4855271,0.5817527,0.23420466,0.49778304,0.8725568,0.2020977,-0.18954498,0.44057006,0.4510306,784.10254,820.3663,825.6044,801.02563,796.5934,0.0,0.0,0.15472412109375,0.01617431640625,1.01239013671875,2.04864501953125,-4.725341796875,-1.592559814453125,1435238.0952380951,95981245.42124544,52077948.71794872,68.29012,1.0,1.0,1.0,1.0,1.0,20.0,,0 days 00:00:00.001000
2023-11-09 13:45:16.078,0.80637187,-0.070875,0.3955477,0.72470355,0.46770456,-0.33048806,-0.06985492,0.3170873,0.67408144,-0.06062131,0.11792027,0.4855271,0.5817527,0.23420466,0.49778304,0.8725568,0.2020977,-0.18954498,0.44057006,0.4510306,780.07324,823.1868,832.4542,812.3077,755.89746,0.0,0.0,0.15472412109375,0.01617431640625,1.01239013671875,2.04864501953125,-4.725341796875,-1.592559814453125,1435238.0952380951,95981245.42124544,52077948.71794872,68.29012,1.0,1.0,1.0,1.0,1.0,20.0,,0 days 00:00:00
2023-11-09 13:45:16.079,0.80637187,-0.070875,0.3955477,0.72470355,0.46770456,-0.33048806,-0.06985492,0.3170873,0.67408144,-0.06062131,0.11792027,0.4855271,0.5817527,0.23420466,0.49778304,0.8725568,0.2020977,-0.18954498,0.44057006,0.4510306,784.5055,819.15753,827.2161,815.9341,730.9158,0.0,0.0,0.15472412109375,0.01617431640625,1.01239013671875,2.04864501953125,-4.725341796875,-1.592559814453125,1435238.0952380951,95981245.42124544,52077948.71794872,68.29012,1.0,1.0,1.0,1.0,1.0,20.0,,0 days 00:00:00.001000
2023-11-09 13:45:16.079,0.80637187,-0.070875,0.3955477,0.72470355,0.46770456,-0.33048806,-0.06985492,0.3170873,0.67408144,-0.06062131,0.11792027,0.4855271,0.5817527,0.23420466,0.49778304,0.8725568,0.2020977,-0.18954498,0.44057006,0.4510306,791.3553,820.7692,817.5458,806.26373,805.8608,0.0,0.0,0.15472412109375,0.01617431640625,1.01239013671875,2.04864501953125,-4.725341796875,-1.592559814453125,1435238.0952380951,95981245.42124544,52077948.71794872,68.29012,1.0,1.0,1.0,1.0,1.0,20.0,,0 days 00:00:00
2023-11-09 13:45:16.079,0.80637187,-0.070875,0.3955477,0.72470355,0.46770456,-0.33048806,-0.06985492,0.3170873,0.67408144,-0.06062131,0.11792027,0.4855271,0.5817527,0.23420466,0.49778304,0.8725568,0.2020977,-0.18954498,0.44057006,0.4510306,796.1905,828.4249,823.5897,811.9048,862.27106,0.0,0.0,0.15472412109375,0.01617431640625,1.01239013671875,2.04864501953125,-4.725341796875,-1.592559814453125,1435238.0952380951,95981245.42124544,52077948.71794872,68.29012,1.0,1.0,1.0,1.0,1.0,20.0,,0 days 00:00:00
2023-11-09 13:45:16.080,0.80637187,-0.070875,0.3955477,0.72470355,0.46770456,-0.33048806,-0.06985492,0.3170873,0.67408144,-0.06062131,0.11792027,0.4855271,0.5817527,0.23420466,0.49778304,0.8725568,0.2020977,-0.18954498,0.44057006,0.4510306,788.5348,831.6484,828.022,808.2784,725.2747,0.0,0.0,0.15472412109375,0.01617431640625,1.01239013671875,2.04864501953125,-4.725341796875,-1.592559814453125,1435238.0952380951,95981245.42124544,52077948.71794872,68.29012,1.0,1.0,1.0,1.0,1.0,20.0,,0 days 00:00:00.001000
2023-11-09 13:45:16.080,0.8356416,-0.06587108,0.4132661,0.7610753,0.6034445,-0.20685184,-0.08774227,0.30052903,0.7654017,-0.0041720946,0.19777066,0.4855271,0.5684922,0.21261327,0.49031577,0.86348,0.21290919,-0.21409522,0.4646336,0.4548925,787.326,836.4835,818.7546,792.96704,703.91943,0.0,0.0,0.15472412109375,0.01617431640625,1.01239013671875,2.04864501953125,-4.725341796875,-1.592559814453125,1435238.0952380951,95981245.42124544,52077948.71794872,68.29012,1.0,1.0,1.0,1.0,1.0,20.0,,0 days 00:00:00
2023-11-09 13:45:16.082,0.8356416,-0.06587108,0.4132661,0.7610753,0.6034445,-0.20685184,-0.08774227,0.30052903,0.7654017,-0.0041720946,0.19777066,0.4855271,0.5684922,0.21261327,0.49031577,0.86348,0.21290919,-0.21409522,0.4646336,0.4548925,787.72894,831.6484,818.3516,803.8461,832.8571,0.0,0.0,0.15472412109375,0.01617431640625,1.01239013671875,2.04864501953125,-4.725341796875,-1.592559814453125,1435238.0952380951,95981245.42124544,52077948.71794872,68.29012,1.0,1.0,1.0,1.0,1.0,20.0,,0 days 00:00:00.002000
2023-11-09 13:45:16.082,0.8356416,-0.06587108,0.4132661,0.7610753,0.6034445,-0.20685184,-0.08774227,0.30052903,0.7654017,-0.0041720946,0.19777066,0.4855271,0.5684922,0.21261327,0.49031577,0.86348,0.21290919,-0.21409522,0.4646336,0.4548925,795.38464,838.0952,803.44324,832.0513,856.63007,0.0,0.0,0.15472412109375,0.01617431640625,1.01239013671875,2.04864501953125,-4.725341796875,-1.592559814453125,1435238.0952380951,95981245.42124544,52077948.71794872,68.29012,1.0,1.0,1.0,1.0,1.0,20.0,,0 days 00:00:00
2023-11-09 13:45:16.106,0.8356416,-0.06587108,0.4132661,0.7610753,0.6034445,-0.20685184,-0.08774227,0.30052903,0.7654017,-0.0041720946,0.19777066,0.4855271,0.5684922,0.21261327,0.49031577,0.86348,0.21290919,-0.21409522,0.4646336,0.4548925,825.6044,854.21246,789.34064,832.0513,748.24176,0.0,0.0,0.15472412109375,0.01617431640625,1.01239013671875,2.04864501953125,-4.725341796875,-1.592559814453125,1435238.0952380951,95981245.42124544,52077948.71794872,68.29012,1.0,1.0,1.0,1.0,1.0,20.0,,0 days 00:00:00.024000
2023-11-09 13:45:16.107,0.8356416,-0.06587108,0.4132661,0.7610753,0.6034445,-0.20685184,-0.08774227,0.30052903,0.7654017,-0.0041720946,0.19777066,0.4855271,0.5684922,0.21261327,0.49031577,0.86348,0.21290919,-0.21409522,0.4646336,0.4548925,816.7399,836.4835,811.9048,803.44324,678.5348,0.0,0.0,0.15472412109375,0.01617431640625,1.01239013671875,2.04864501953125,-4.725341796875,-1.592559814453125,1435238.0952380951,95981245.42124544,52077948.71794872,68.29012,1.0,1.0,1.0,1.0,1.0,20.0,,0 days 00:00:00.001000
2023-11-09 13:45:16.107,0.8356416,-0.06587108,0.4132661,0.7610753,0.6034445,-0.20685184,-0.08774227,0.30052903,0.7654017,-0.0041720946,0.19777066,0.4855271,0.5684922,0.21261327,0.49031577,0.86348,0.21290919,-0.21409522,0.4646336,0.4548925,795.78754,809.89014,827.2161,803.44324,832.8571,0.0,0.0,0.15472412109375,0.01617431640625,1.01239013671875,2.04864501953125,-4.725341796875,-1.592559814453125,1435238.0952380951,95981245.42124544,52077948.71794872,68.29012,1.0,1.0,1.0,1.0,1.0,20.0,,0 days 00:00:00
2023-11-09 13:45:16.108,0.8356416,-0.06587108,0.4132661,0.7610753,0.6034445,-0.20685184,-0.08774227,0.30052903,0.7654017,-0.0041720946,0.19777066,0.4855271,0.5684922,0.21261327,0.49031577,0.86348,0.21290919,-0.21409522,0.4646336,0.4548925,788.93774,809.4872,818.3516,827.2161,1143.9194,0.0,0.0,0.15472412109375,0.01617431640625,1.01239013671875,2.04864501953125,-4.725341796875,-1.592559814453125,1435238.0952380951,95981245.42124544,52077948.71794872,68.29012,1.0,1.0,1.0,1.0,1.0,20.0,,0 days 00:00:00.001000
2023-11-09 13:45:16.108,0.8356416,-0.06587108,0.4132661,0.7610753,0.6034445,-0.20685184,-0.08774227,0.30052903,0.7654017,-0.0041720946,0.19777066,0.4855271,0.5684922,0.21261327,0.49031577,0.86348,0.21290919,-0.21409522,0.4646336,0.4548925,784.90845,826.8132,819.9634,805.8608,1001.28204,0.0,0.0,0.15472412109375,0.01617431640625,1.01239013671875,2.04864501953125,-4.725341796875,-1.592559814453125,1435238.0952380951,95981245.42124544,52077948.71794872,68.29012,1.0,1.0,1.0,1.0,1.0,20.0,,0 days 00:00:00
2023-11-09 13:45:16.108,0.8356416,-0.06587108,0.4132661,0.7610753,0.6034445,-0.20685184,-0.08774227,0.30052903,0.7654017,-0.0041720946,0.19777066,0.4855271,0.5684922,0.21261327,0.49031577,0.86348,0.21290919,-0.21409522,0.4646336,0.4548925,786.52014,830.4396,823.1868,775.64105,679.34064,0.0,0.0,0.15472412109375,0.01617431640625,1.01239013671875,2.04864501953125,-4.725341796875,-1.592559814453125,1435238.0952380951,95981245.42124544,52077948.71794872,68.29012,1.0,1.0,1.0,1.0,1.0,20.0,,0 days 00:00:00
2023-11-09 13:45:16.109,0.8356416,-0.06587108,0.4132661,0.7610753,0.6034445,-0.20685184,-0.08774227,0.30052903,0.7654017,-0.0041720946,0.19777066,0.4855271,0.5684922,0.21261327,0.49031577,0.86348,0.21290919,-0.21409522,0.4646336,0.4548925,794.17584,821.5751,819.5604,799.81683,867.50916,0.0,0.0,0.15472412109375,0.01617431640625,1.01239013671875,2.04864501953125,-4.725341796875,-1.592559814453125,1435238.0952380951,95981245.42124544,52077948.71794872,68.29012,1.0,1.0,1.0,1.0,1.0,20.0,,0 days 00:00:00.001000
2023-11-09 13:45:16.109,0.8356416,-0.06587108,0.4132661,0.7610753,0.6034445,-0.20685184,-0.08774227,0.30052903,0.7654017,-0.0041720946,0.19777066,0.4855271,0.5684922,0.21261327,0.49031577,0.86348,0.21290919,-0.21409522,0.4646336,0.4548925,794.57874,818.7546,819.15753,817.1429,1055.6776,0.0,0.0,0.15472412109375,0.01617431640625,1.01239013671875,2.04864501953125,-4.725341796875,-1.592559814453125,1435238.0952380951,95981245.42124544,52077948.71794872,68.29012,1.0,1.0,1.0,1.0,1.0,20.0,,0 days 00:00:00
2023-11-09 13:45:16.110,0.8356416,-0.06587108,0.4132661,0.7610753,0.6034445,-0.20685184,-0.08774227,0.30052903,0.7654017,-0.0041720946,0.19777066,0.4855271,0.5684922,0.21261327,0.49031577,0.86348,0.21290919,-0.21409522,0.4646336,0.4548925,794.17584,829.2308,828.4249,794.57874,743.8095,0.0,0.0,0.15472412109375,0.01617431640625,1.01239013671875,2.04864501953125,-4.725341796875,-1.592559814453125,1435238.0952380951,95981245.42124544,52077948.71794872,68.29012,1.0,1.0,1.0,1.0,1.0,20.0,,0 days 00:00:00.001000
2023-11-09 13:45:16.110,0.8356416,-0.06587108,0.4132661,0.7610753,0.6034445,-0.20685184,-0.08774227,0.30052903,0.7654017,-0.0041720946,0.19777066,0.4855271,0.5684922,0.21261327,0.49031577,0.86348,0.21290919,-0.21409522,0.4646336,0.4548925,805.8608,827.2161,832.4542,800.2198,634.21246,0.0,0.0,0.15472412109375,0.01617431640625,1.01239013671875,2.04864501953125,-4.725341796875,-1.592559814453125,1435238.0952380951,95981245.42124544,52077948.71794872,68.29012,1.0,1.0,1.0,1.0,1.0,20.0,,0 days 00:00:00
2023-11-09 13:45:16.110,0.8356416,-0.06587108,0.4132661,0.7610753,0.6034445,-0.20685184,-0.08774227,0.30052903,0.7654017,-0.0041720946,0.19777066,0.4855271,0.5684922,0.21261327,0.49031577,0.86348,0.21290919,-0.21409522,0.4646336,0.4548925,823.9927,827.619,828.4249,813.91943,703.1135,0.0,0.0,0.15472412109375,0.01617431640625,1.01239013671875,2.04864501953125,-4.725341796875,-1.592559814453125,1435238.0952380951,95981245.42124544,52077948.71794872,68.29012,1.0,1.0,1.0,1.0,1.0,20.0,,0 days 00:00:00
2023-11-09 13:45:16.111,0.8356416,-0.06587108,0.4132661,0.7610753,0.6034445,-0.20685184,-0.08774227,0.30052903,0.7654017,-0.0041720946,0.19777066,0.4855271,0.5684922,0.21261327,0.49031577,0.86348,0.21290919,-0.21409522,0.4646336,0.4548925,834.87177,830.0366,819.15753,803.8461,643.47986,0.0,0.0,0.15472412109375,0.01617431640625,1.01239013671875,2.04864501953125,-4.725341796875,-1.592559814453125,1435238.0952380951,95981245.42124544,52077948.71794872,68.29012,1.0,1.0,1.0,1.0,1.0,20.0,,0 days 00:00:00.001000
2023-11-09 13:45:16.177,0.8356416,-0.06587108,0.4132661,0.7610753,0.6034445,-0.20685184,-0.08774227,0.30052903,0.7654017,-0.0041720946,0.19777066,0.4855271,0.5684922,0.21261327,0.49031577,0.86348,0.21290919,-0.21409522,0.4646336,0.4548925,821.978,823.1868,825.2015,805.8608,660.80585,0.0,0.0,0.1494140625,0.023681640625,0.99151611328125,2.654266357421875,-3.46923828125,-0.725250244140625,1436849.8168498168,95970769.23076925,52020732.6007326,68.29012,1.0,1.0,1.0,1.0,1.0,20.0,,0 days 00:00:00.066000
2023-11-09 13:45:16.177,0.8356416,-0.06587108,0.4132661,0.7610753,0.6034445,-0.20685184,-0.08774227,0.30052903,0.7654017,-0.0041720946,0.19777066,0.4855271,0.5684922,0.21261327,0.49031577,0.86348,0.21290919,-0.21409522,0.4646336,0.4548925,811.9048,817.5458,824.3956,807.47253,755.89746,0.0,0.0,0.1494140625,0.023681640625,0.99151611328125,2.654266357421875,-3.46923828125,-0.725250244140625,1436849.8168498168,95970769.23076925,52020732.6007326,68.29012,1.0,1.0,1.0,1.0,1.0,20.0,,0 days 00:00:00
2023-11-09 13:45:16.178,0.8356416,-0.06587108,0.4132661,0.7610753,0.6034445,-0.20685184,-0.08774227,0.30052903,0.7654017,-0.0041720946,0.19777066,0.4855271,0.5684922,0.21261327,0.49031577,0.86348,0.21290919,-0.21409522,0.4646336,0.4548925,823.1868,821.978,802.6374,793.36993,795.38464,0.0,0.0,0.1494140625,0.023681640625,0.99151611328125,2.654266357421875,-3.46923828125,-0.725250244140625,1436849.8168498168,95970769.23076925,52020732.6007326,68.29012,1.0,1.0,1.0,1.0,1.0,20.0,,0 days 00:00:00.001000
2023-11-09 13:45:16.178,0.8356416,-0.06587108,0.4132661,0.7610753,0.6034445,-0.20685184,-0.08774227,0.30052903,0.7654017,-0.0041720946,0.19777066,0.4855271,0.5684922,0.21261327,0.49031577,0.86348,0.21290919,-0.21409522,0.4646336,0.4548925,820.7692,827.619,812.3077,787.326,758.315,0.0,0.0,0.1494140625,0.023681640625,0.99151611328125,2.654266357421875,-3.46923828125,-0.725250244140625,1436849.8168498168,95970769.23076925,52020732.6007326,68.29012,1.0,1.0,1.0,1.0,1.0,20.0,,0 days 00:00:00
2023-11-09 13:45:16.179,0.8356416,-0.06587108,0.4132661,0.7610753,0.6034445,-0.20685184,-0.08774227,0.30052903,0.7654017,-0.0041720946,0.19777066,0.4855271,0.5684922,0.21261327,0.49031577,0.86348,0.21290919,-0.21409522,0.4646336,0.4548925,821.1722,825.2015,830.4396,797.3993,727.28937,0.0,0.0,0.1494140625,0.023681640625,0.99151611328125,2.654266357421875,-3.46923828125,-0.725250244140625,1436849.8168498168,95970769.23076925,52020732.6007326,68.29012,1.0,1.0,1.0,1.0,1.0,20.0,,0 days 00:00:00.001000
2023-11-09 13:45:16.179,0.8356416,-0.06587108,0.4132661,0.7610753,0.6034445,-0.20685184,-0.08774227,0.30052903,0.7654017,-0.0041720946,0.19777066,0.4855271,0.5684922,0.21261327,0.49031577,0.86348,0.21290919,-0.21409522,0.4646336,0.4548925,826.4103,819.15753,818.3516,815.9341,875.16486,0.0,0.0,0.1494140625,0.023681640625,0.99151611328125,2.654266357421875,-3.46923828125,-0.725250244140625,1436849.8168498168,95970769.23076925,52020732.6007326,68.29012,1.0,1.0,1.0,1.0,1.0,20.0,,0 days 00:00:00
2023-11-09 13:45:16.180,0.8356416,-0.06587108,0.4132661,0.7610753,0.6034445,-0.20685184,-0.08774227,0.30052903,0.7654017,-0.0041720946,0.19777066,0.4855271,0.5684922,0.21261327,0.49031577,0.86348,0.21290919,-0.21409522,0.4646336,0.4548925,828.022,816.337,811.9048,824.3956,966.2271,0.0,0.0,0.1494140625,0.023681640625,0.99151611328125,2.654266357421875,-3.46923828125,-0.725250244140625,1436849.8168498168,95970769.23076925,52020732.6007326,68.29012,1.0,1.0,1.0,1.0,1.0,20.0,,0 days 00:00:00.001000
2023-11-09 13:45:16.180,0.8356416,-0.06587108,0.4132661,0.7610753,0.6034445,-0.20685184,-0.08774227,0.30052903,0.7654017,-0.0041720946,0.19777066,0.4855271,0.5684922,0.21261327,0.49031577,0.86348,0.21290919,-0.21409522,0.4646336,0.4548925,820.7692,824.7985,812.3077,806.6667,832.4542,0.0,0.0,0.1494140625,0.023681640625,0.99151611328125,2.654266357421875,-3.46923828125,-0.725250244140625,1436849.8168498168,95970769.23076925,52020732.6007326,68.29012,1.0,1.0,1.0,1.0,1.0,20.0,,0 days 00:00:00
2023-11-09 13:45:16.181,0.8356416,-0.06587108,0.4132661,0.7610753,0.6034445,-0.20685184,-0.08774227,0.30052903,0.7654017,-0.0041720946,0.19777066,0.4855271,0.5684922,0.21261327,0.49031577,0.86348,0.21290919,-0.21409522,0.4646336,0.4548925,813.91943,833.663,816.337,789.7436,739.3773,0.0,0.0,0.1494140625,0.023681640625,0.99151611328125,2.654266357421875,-3.46923828125,-0.725250244140625,1436849.8168498168,95970769.23076925,52020732.6007326,68.29012,1.0,1.0,1.0,1.0,1.0,20.0,,0 days 00:00:00.001000
2023-11-09 13:45:16.181,0.8356416,-0.06587108,0.4132661,0.7610753,0.6034445,-0.20685184,-0.08774227,0.30052903,0.7654017,-0.0041720946,0.19777066,0.4855271,0.5684922,0.21261327,0.49031577,0.86348,0.21290919,-0.21409522,0.4646336,0.4548925,830.84247,825.6044,815.5311,805.4579,853.8095,0.0,0.0,0.1494140625,0.023681640625,0.99151611328125,2.654266357421875,-3.46923828125,-0.725250244140625,1436849.8168498168,95970769.23076925,52020732.6007326,68.29012,1.0,1.0,1.0,1.0,1.0,20.0,,0 days 00:00:00
2023-11-09 13:45:16.181,0.8356416,-0.06587108,0.4132661,0.7610753,0.6034445,-0.20685184,-0.08774227,0.30052903,0.7654017,-0.0041720946,0.19777066,0.4855271,0.5684922,0.21261327,0.49031577,0.86348,0.21290919,-0.21409522,0.4646336,0.4548925,832.0513,823.9927,815.12823,822.381,925.9341,0.0,0.0,0.1494140625,0.023681640625,0.99151611328125,2.654266357421875,-3.46923828125,-0.725250244140625,1436849.8168498168,95970769.23076925,52020732.6007326,68.29012,1.0,1.0,1.0,1.0,1.0,20.0,,0 days 00:00:00
2023-11-09 13:45:16.182,0.84816796,-0.05447852,0.43214786,0.7795397,0.6824129,-0.10531366,-0.09853689,0.27903548,0.8010454,0.0048187473,0.23900342,0.5053746,0.57073843,0.1989158,0.49610654,0.86407435,0.22761306,-0.22909145,0.4838007,0.45567626,824.3956,830.0366,829.6337,796.1905,761.13556,0.0,0.0,0.1494140625,0.023681640625,0.99151611328125,2.654266357421875,-3.46923828125,-0.725250244140625,1436849.8168498168,95970769.23076925,52020732.6007326,68.29012,1.0,1.0,1.0,1.0,1.0,20.0,,0 days 00:00:00.001000
2023-11-09 13:45:16.213,0.84816796,-0.05447852,0.43214786,0.7795397,0.6824129,-0.10531366,-0.09853689,0.27903548,0.8010454,0.0048187473,0.23900342,0.5053746,0.57073843,0.1989158,0.49610654,0.86407435,0.22761306,-0.22909145,0.4838007,0.45567626,836.08057,826.8132,836.08057,789.34064,748.24176,0.0,0.0,0.13525390625,0.02288818359375,0.99072265625,3.431854248046875,-2.22808837890625,-0.097198486328125,1436849.8168498168,95970769.23076925,52020732.6007326,68.29012,1.0,1.0,1.0,1.0,1.0,20.0,,0 days 00:00:00.031000
2023-11-09 13:45:16.215,0.84816796,-0.05447852,0.43214786,0.7795397,0.6824129,-0.10531366,-0.09853689,0.27903548,0.8010454,0.0048187473,0.23900342,0.5053746,0.57073843,0.1989158,0.49610654,0.86407435,0.22761306,-0.22909145,0.4838007,0.45567626,824.7985,820.3663,830.84247,811.0989,795.78754,0.0,0.0,0.13525390625,0.02288818359375,0.99072265625,3.431854248046875,-2.22808837890625,-0.097198486328125,1436849.8168498168,95970769.23076925,52020732.6007326,68.29012,1.0,1.0,1.0,1.0,1.0,20.0,,0 days 00:00:00.002000
2023-11-09 13:45:16.215,0.84816796,-0.05447852,0.43214786,0.7795397,0.6824129,-0.10531366,-0.09853689,0.27903548,0.8010454,0.0048187473,0.23900342,0.5053746,0.57073843,0.1989158,0.49610654,0.86407435,0.22761306,-0.22909145,0.4838007,0.45567626,827.2161,820.3663,834.87177,821.5751,805.05493,0.0,0.0,0.13525390625,0.02288818359375,0.99072265625,3.431854248046875,-2.22808837890625,-0.097198486328125,1436849.8168498168,95970769.23076925,52020732.6007326,68.29012,1.0,1.0,1.0,1.0,1.0,20.0,,0 days 00:00:00
2023-11-09 13:45:16.215,0.84816796,-0.05447852,0.43214786,0.7795397,0.6824129,-0.10531366,-0.09853689,0.27903548,0.8010454,0.0048187473,0.23900342,0.5053746,0.57073843,0.1989158,0.49610654,0.86407435,0.22761306,-0.22909145,0.4838007,0.45567626,829.6337,831.2454,839.707,813.91943,761.9414,0.0,0.0,0.13525390625,0.02288818359375,0.99072265625,3.431854248046875,-2.22808837890625,-0.097198486328125,1436849.8168498168,95970769.23076925,52020732.6007326,68.29012,1.0,1.0,1.0,1.0,1.0,20.0,,0 days 00:00:00
2023-11-09 13:45:16.215,0.84816796,-0.05447852,0.43214786,0.7795397,0.6824129,-0.10531366,-0.09853689,0.27903548,0.8010454,0.0048187473,0.23900342,0.5053746,0.57073843,0.1989158,0.49610654,0.86407435,0.22761306,-0.22909145,0.4838007,0.45567626,809.0842,831.2454,834.4689,804.65204,768.3883,0.0,0.0,0.13525390625,0.02288818359375,0.99072265625,3.431854248046875,-2.22808837890625,-0.097198486328125,1436849.8168498168,95970769.23076925,52020732.6007326,68.29012,1.0,1.0,1.0,1.0,1.0,20.0,,0 days 00:00:00
2023-11-09 13:45:16.216,0.84816796,-0.05447852,0.43214786,0.7795397,0.6824129,-0.10531366,-0.09853689,0.27903548,0.8010454,0.0048187473,0.23900342,0.5053746,0.57073843,0.1989158,0.49610654,0.86407435,0.22761306,-0.22909145,0.4838007,0.45567626,824.3956,817.1429,828.8278,804.2491,960.58606,0.0,0.0,0.13525390625,0.02288818359375,0.99072265625,3.431854248046875,-2.22808837890625,-0.097198486328125,1436849.8168498168,95970769.23076925,52020732.6007326,68.29012,1.0,1.0,1.0,1.0,1.0,20.0,,0 days 00:00:00.001000
2023-11-09 13:45:16.216,0.84816796,-0.05447852,0.43214786,0.7795397,0.6824129,-0.10531366,-0.09853689,0.27903548,0.8010454,0.0048187473,0.23900342,0.5053746,0.57073843,0.1989158,0.49610654,0.86407435,0.22761306,-0.22909145,0.4838007,0.45567626,831.6484,820.7692,830.0366,803.0403,964.61536,0.0,0.0,0.13525390625,0.02288818359375,0.99072265625,3.431854248046875,-2.22808837890625,-0.097198486328125,1436849.8168498168,95970769.23076925,52020732.6007326,68.29012,1.0,1.0,1.0,1.0,1.0,20.0,,0 days 00:00:00
2023-11-09 13:45:16.216,0.84816796,-0.05447852,0.43214786,0.7795397,0.6824129,-0.10531366,-0.09853689,0.27903548,0.8010454,0.0048187473,0.23900342,0.5053746,0.57073843,0.1989158,0.49610654,0.86407435,0.22761306,-0.22909145,0.4838007,0.45567626,807.0696,831.6484,830.4396,793.7729,774.83514,0.0,0.0,0.13525390625,0.02288818359375,0.99072265625,3.431854248046875,-2.22808837890625,-0.097198486328125,1436849.8168498168,95970769.23076925,52020732.6007326,68.29012,1.0,1.0,1.0,1.0,1.0,20.0,,0 days 00:00:00
2023-11-09 13:45:16.216,0.84816796,-0.05447852,0.43214786,0.7795397,0.6824129,-0.10531366,-0.09853689,0.27903548,0.8010454,0.0048187473,0.23900342,0.5053746,0.57073843,0.1989158,0.49610654,0.86407435,0.22761306,-0.22909145,0.4838007,0.45567626,807.47253,826.8132,830.84247,797.8022,719.2308,0.0,0.0,0.13525390625,0.02288818359375,0.99072265625,3.431854248046875,-2.22808837890625,-0.097198486328125,1436849.8168498168,95970769.23076925,52020732.6007326,68.29012,1.0,1.0,1.0,1.0,1.0,20.0,,0 days 00:00:00
2023-11-09 13:45:16.217,0.84816796,-0.05447852,0.43214786,0.7795397,0.6824129,-0.10531366,-0.09853689,0.27903548,0.8010454,0.0048187473,0.23900342,0.5053746,0.57073843,0.1989158,0.49610654,0.86407435,0.22761306,-0.22909145,0.4838007,0.45567626,808.68134,816.337,820.3663,828.8278,902.5641,0.0,0.0,0.13525390625,0.02288818359375,0.99072265625,3.431854248046875,-2.22808837890625,-0.097198486328125,1436849.8168498168,95970769.23076925,52020732.6007326,68.29012,1.0,1.0,1.0,1.0,1.0,20.0,,0 days 00:00:00.001000
2023-11-09 13:45:16.217,0.84816796,-0.05447852,0.43214786,0.7795397,0.6824129,-0.10531366,-0.09853689,0.27903548,0.8010454,0.0048187473,0.23900342,0.5053746,0.57073843,0.1989158,0.49610654,0.86407435,0.22761306,-0.22909145,0.4838007,0.45567626,807.8755,824.3956,815.9341,819.9634,1002.8938,0.0,0.0,0.13525390625,0.02288818359375,0.99072265625,3.431854248046875,-2.22808837890625,-0.097198486328125,1436849.8168498168,95970769.23076925,52020732.6007326,68.29012,1.0,1.0,1.0,1.0,1.0,20.0,,0 days 00:00:00
2023-11-09 13:45:16.217,0.84816796,-0.05447852,0.43214786,0.7795397,0.6824129,-0.10531366,-0.09853689,0.27903548,0.8010454,0.0048187473,0.23900342,0.5053746,0.57073843,0.1989158,0.49610654,0.86407435,0.22761306,-0.22909145,0.4838007,0.45567626,810.696,834.4689,829.6337,786.52014,751.8681,0.0,0.0,0.13525390625,0.02288818359375,0.99072265625,3.431854248046875,-2.22808837890625,-0.097198486328125,1436849.8168498168,95970769.23076925,52020732.6007326,68.29012,1.0,1.0,1.0,1.0,1.0,20.0,,0 days 00:00:00
2023-11-09 13:45:16.281,0.84816796,-0.05447852,0.43214786,0.7795397,0.6824129,-0.10531366,-0.09853689,0.27903548,0.8010454,0.0048187473,0.23900342,0.5053746,0.57073843,0.1989158,0.49610654,0.86407435,0.22761306,-0.22909145,0.4838007,0.45567626,801.4286,830.84247,828.4249,800.2198,712.7839,0.0,0.0,0.1302490234375,0.02716064453125,1.00244140625,3.6785888671875,-4.448699951171875,1.039276123046875,1437655.6776556775,95964322.34432234,52053772.89377289,68.29012,1.0,1.0,1.0,1.0,1.0,20.0,,0 days 00:00:00.064000
2023-11-09 13:45:16.282,0.84816796,-0.05447852,0.43214786,0.7795397,0.6824129,-0.10531366,-0.09853689,0.27903548,0.8010454,0.0048187473,0.23900342,0.5053746,0.57073843,0.1989158,0.49610654,0.86407435,0.22761306,-0.22909145,0.4838007,0.45567626,793.36993,829.6337,826.8132,809.4872,774.43225,0.0,0.0,0.1302490234375,0.02716064453125,1.00244140625,3.6785888671875,-4.448699951171875,1.039276123046875,1437655.6776556775,95964322.34432234,52053772.89377289,68.29012,1.0,1.0,1.0,1.0,1.0,20.0,,0 days 00:00:00.001000
2023-11-09 13:45:16.283,0.84816796,-0.05447852,0.43214786,0.7795397,0.6824129,-0.10531366,-0.09853689,0.27903548,0.8010454,0.0048187473,0.23900342,0.5053746,0.57073843,0.1989158,0.49610654,0.86407435,0.22761306,-0.22909145,0.4838007,0.45567626,790.9524,830.4396,829.6337,806.26373,724.0659,0.0,0.0,0.1302490234375,0.02716064453125,1.00244140625,3.6785888671875,-4.448699951171875,1.039276123046875,1437655.6776556775,95964322.34432234,52053772.89377289,68.29012,1.0,1.0,1.0,1.0,1.0,20.0,,0 days 00:00:00.001000
2023-11-09 13:45:16.283,0.84816796,-0.05447852,0.43214786,0.7795397,0.6824129,-0.10531366,-0.09853689,0.27903548,0.8010454,0.0048187473,0.23900342,0.5053746,0.57073843,0.1989158,0.49610654,0.86407435,0.22761306,-0.22909145,0.4838007,0.45567626,790.54944,830.84247,830.4396,809.4872,698.2784,0.0,0.0,0.1302490234375,0.02716064453125,1.00244140625,3.6785888671875,-4.448699951171875,1.039276123046875,1437655.6776556775,95964322.34432234,52053772.89377289,68.29012,1.0,1.0,1.0,1.0,1.0,20.0,,0 days 00:00:00
2023-11-09 13:45:16.284,0.84816796,-0.05447852,0.43214786,0.7795397,0.6824129,-0.10531366,-0.09853689,0.27903548,0.8010454,0.0048187473,0.23900342,0.5053746,0.57073843,0.1989158,0.49610654,0.86407435,0.22761306,-0.22909145,0.4838007,0.45567626,795.38464,828.4249,815.12823,814.7253,724.87177,0.0,0.0,0.1302490234375,0.02716064453125,1.00244140625,3.6785888671875,-4.448699951171875,1.039276123046875,1437655.6776556775,95964322.34432234,52053772.89377289,68.29012,1.0,1.0,1.0,1.0,1.0,20.0,,0 days 00:00:00.001000
2023-11-09 13:45:16.284,0.84816796,-0.05447852,0.43214786,0.7795397,0.6824129,-0.10531366,-0.09853689,0.27903548,0.8010454,0.0048187473,0.23900342,0.5053746,0.57073843,0.1989158,0.49610654,0.86407435,0.22761306,-0.22909145,0.4838007,0.45567626,799.011,826.0073,808.2784,823.1868,815.5311,0.0,0.0,0.1302490234375,0.02716064453125,1.00244140625,3.6785888671875,-4.448699951171875,1.039276123046875,1437655.6776556775,95964322.34432234,52053772.89377289,68.29012,1.0,1.0,1.0,1.0,1.0,20.0,,0 days 00:00:00
2023-11-09 13:45:16.285,0.84816796,-0.05447852,0.43214786,0.7795397,0.6824129,-0.10531366,-0.09853689,0.27903548,0.8010454,0.0048187473,0.23900342,0.5053746,0.57073843,0.1989158,0.49610654,0.86407435,0.22761306,-0.22909145,0.4838007,0.45567626,783.69965,823.5897,824.3956,813.5165,921.50183,0.0,0.0,0.1302490234375,0.02716064453125,1.00244140625,3.6785888671875,-4.448699951171875,1.039276123046875,1437655.6776556775,95964322.34432234,52053772.89377289,68.29012,1.0,1.0,1.0,1.0,1.0,20.0,,0 days 00:00:00.001000
2023-11-09 13:45:16.285,0.84816796,-0.05447852,0.43214786,0.7795397,0.6824129,-0.10531366,-0.09853689,0.27903548,0.8010454,0.0048187473,0.23900342,0.5053746,0.57073843,0.1989158,0.49610654,0.86407435,0.22761306,-0.22909145,0.4838007,0.45567626,779.2674,825.2015,832.0513,805.05493,817.9487,0.0,0.0,0.1302490234375,0.02716064453125,1.00244140625,3.6785888671875,-4.448699951171875,1.039276123046875,1437655.6776556775,95964322.34432234,52053772.89377289,68.29012,1.0,1.0,1.0,1.0,1.0,20.0,,0 days 00:00:00
2023-11-09 13:45:16.286,0.84816796,-0.05447852,0.43214786,0.7795397,0.6824129,-0.10531366,-0.09853689,0.27903548,0.8010454,0.0048187473,0.23900342,0.5053746,0.57073843,0.1989158,0.49610654,0.86407435,0.22761306,-0.22909145,0.4838007,0.45567626,796.99634,818.3516,820.7692,823.5897,775.2381,0.0,0.0,0.1302490234375,0.02716064453125,1.00244140625,3.6785888671875,-4.448699951171875,1.039276123046875,1437655.6776556775,95964322.34432234,52053772.89377289,68.29012,1.0,1.0,1.0,1.0,1.0,20.0,,0 days 00:00:00.001000
2023-11-09 13:45:16.286,0.84816796,-0.05447852,0.43214786,0.7795397,0.6824129,-0.10531366,-0.09853689,0.27903548,0.8010454,0.0048187473,0.23900342,0.5053746,0.57073843,0.1989158,0.49610654,0.86407435,0.22761306,-0.22909145,0.4838007,0.45567626,789.7436,811.9048,818.3516,819.5604,916.6667,0.0,0.0,0.1302490234375,0.02716064453125,1.00244140625,3.6785888671875,-4.448699951171875,1.039276123046875,1437655.6776556775,95964322.34432234,52053772.89377289,68.29012,1.0,1.0,1.0,1.0,1.0,20.0,,0 days 00:00:00
2023-11-09 13:45:16.286,0.84816796,-0.05447852,0.43214786,0.7795397,0.6824129,-0.10531366,-0.09853689,0.27903548,0.8010454,0.0048187473,0.23900342,0.5053746,0.57073843,0.1989158,0.49610654,0.86407435,0.22761306,-0.22909145,0.4838007,0.45567626,776.4469,819.15753,828.022,799.41394,787.326,0.0,0.0,0.1302490234375,0.02716064453125,1.00244140625,3.6785888671875,-4.448699951171875,1.039276123046875,1437655.6776556775,95964322.34432234,52053772.89377289,68.29012,1.0,1.0,1.0,1.0,1.0,20.0,,0 days 00:00:00
2023-11-09 13:45:16.287,0.84816796,-0.05447852,0.43214786,0.7795397,0.6824129,-0.10531366,-0.09853689,0.27903548,0.8010454,0.0048187473,0.23900342,0.5053746,0.57073843,0.1989158,0.49610654,0.86407435,0.22761306,-0.22909145,0.4838007,0.45567626,761.53845,824.3956,825.6044,800.2198,704.3223,0.0,0.0,0.1302490234375,0.02716064453125,1.00244140625,3.6785888671875,-4.448699951171875,1.039276123046875,1437655.6776556775,95964322.34432234,52053772.89377289,68.29012,1.0,1.0,1.0,1.0,1.0,20.0,,0 days 00:00:00.001000
2023-11-09 13:45:16.323,0.84816796,-0.05447852,0.43214786,0.7795397,0.6824129,-0.10531366,-0.09853689,0.27903548,0.8010454,0.0048187473,0.23900342,0.5053746,0.57073843,0.1989158,0.49610654,0.86407435,0.22761306,-0.22909145,0.4838007,0.45567626,764.35895,827.2161,818.7546,821.1722,869.12085,0.0,0.0,0.1422119140625,0.0301513671875,0.99285888671875,1.95892333984375,-5.3533935546875,-1.069183349609375,1437655.6776556775,95964322.34432234,52053772.89377289,68.29012,1.0,1.0,1.0,1.0,1.0,20.0,,0 days 00:00:00.036000
2023-11-09 13:45:16.324,0.8597911,-0.048820533,0.4464761,0.78131205,0.708797,-0.042464834,-0.10327818,0.25318387,0.8010454,0.009861804,0.26629034,0.54405236,0.58039176,0.19581558,0.5060181,0.8664078,0.24264753,-0.24088493,0.4977235,0.44817317,776.4469,823.1868,824.7985,817.9487,897.326,0.0,0.0,0.1422119140625,0.0301513671875,0.99285888671875,1.95892333984375,-5.3533935546875,-1.069183349609375,1437655.6776556775,95964322.34432234,52053772.89377289,68.29012,1.0,1.0,1.0,1.0,1.0,20.0,,0 days 00:00:00.001000
2023-11-09 13:45:16.327,0.8597911,-0.048820533,0.4464761,0.78131205,0.708797,-0.042464834,-0.10327818,0.25318387,0.8010454,0.009861804,0.26629034,0.54405236,0.58039176,0.19581558,0.5060181,0.8664078,0.24264753,-0.24088493,0.4977235,0.44817317,763.95605,825.2015,834.0659,791.75824,728.49817,0.0,0.0,0.1422119140625,0.0301513671875,0.99285888671875,1.95892333984375,-5.3533935546875,-1.069183349609375,1437655.6776556775,95964322.34432234,52053772.89377289,68.29012,1.0,1.0,1.0,1.0,1.0,20.0,,0 days 00:00:00.003000
2023-11-09 13:45:16.327,0.8597911,-0.048820533,0.4464761,0.78131205,0.708797,-0.042464834,-0.10327818,0.25318387,0.8010454,0.009861804,0.26629034,0.54405236,0.58039176,0.19581558,0.5060181,0.8664078,0.24264753,-0.24088493,0.4977235,0.44817317,763.5531,829.6337,834.4689,792.1612,724.4689,0.0,0.0,0.1422119140625,0.0301513671875,0.99285888671875,1.95892333984375,-5.3533935546875,-1.069183349609375,1437655.6776556775,95964322.34432234,52053772.89377289,68.29012,1.0,1.0,1.0,1.0,1.0,20.0,,0 days 00:00:00
2023-11-09 13:45:16.328,0.8597911,-0.048820533,0.4464761,0.78131205,0.708797,-0.042464834,-0.10327818,0.25318387,0.8010454,0.009861804,0.26629034,0.54405236,0.58039176,0.19581558,0.5060181,0.8664078,0.24264753,-0.24088493,0.4977235,0.44817317,770.0,828.022,829.6337,805.05493,780.87915,0.0,0.0,0.1422119140625,0.0301513671875,0.99285888671875,1.95892333984375,-5.3533935546875,-1.069183349609375,1437655.6776556775,95964322.34432234,52053772.89377289,68.29012,1.0,1.0,1.0,1.0,1.0,20.0,,0 days 00:00:00.001000
2023-11-09 13:45:16.329,0.8597911,-0.048820533,0.4464761,0.78131205,0.708797,-0.042464834,-0.10327818,0.25318387,0.8010454,0.009861804,0.26629034,0.54405236,0.58039176,0.19581558,0.5060181,0.8664078,0.24264753,-0.24088493,0.4977235,0.44817317,781.28204,828.022,832.4542,811.50183,817.9487,0.0,0.0,0.1422119140625,0.0301513671875,0.99285888671875,1.95892333984375,-5.3533935546875,-1.069183349609375,1437655.6776556775,95964322.34432234,52053772.89377289,68.29012,1.0,1.0,1.0,1.0,1.0,20.0,,0 days 00:00:00.001000
2023-11-09 13:45:16.329,0.8597911,-0.048820533,0.4464761,0.78131205,0.708797,-0.042464834,-0.10327818,0.25318387,0.8010454,0.009861804,0.26629034,0.54405236,0.58039176,0.19581558,0.5060181,0.8664078,0.24264753,-0.24088493,0.4977235,0.44817317,777.25275,827.619,826.0073,808.2784,785.31134,0.0,0.0,0.1422119140625,0.0301513671875,0.99285888671875,1.95892333984375,-5.3533935546875,-1.069183349609375,1437655.6776556775,95964322.34432234,52053772.89377289,68.29012,1.0,1.0,1.0,1.0,1.0,20.0,,0 days 00:00:00
2023-11-09 13:45:16.330,0.8597911,-0.048820533,0.4464761,0.78131205,0.708797,-0.042464834,-0.10327818,0.25318387,0.8010454,0.009861804,0.26629034,0.54405236,0.58039176,0.19581558,0.5060181,0.8664078,0.24264753,-0.24088493,0.4977235,0.44817317,765.56775,822.7839,813.5165,801.4286,766.77655,0.0,0.0,0.1422119140625,0.0301513671875,0.99285888671875,1.95892333984375,-5.3533935546875,-1.069183349609375,1437655.6776556775,95964322.34432234,52053772.89377289,68.29012,1.0,1.0,1.0,1.0,1.0,20.0,,0 days 00:00:00.001000
2023-11-09 13:45:16.330,0.8597911,-0.048820533,0.4464761,0.78131205,0.708797,-0.042464834,-0.10327818,0.25318387,0.8010454,0.009861804,0.26629034,0.54405236,0.58039176,0.19581558,0.5060181,0.8664078,0.24264753,-0.24088493,0.4977235,0.44817317,790.9524,815.5311,812.3077,817.9487,921.50183,0.0,0.0,0.1422119140625,0.0301513671875,0.99285888671875,1.95892333984375,-5.3533935546875,-1.069183349609375,1437655.6776556775,95964322.34432234,52053772.89377289,68.29012,1.0,1.0,1.0,1.0,1.0,20.0,,0 days 00:00:00
2023-11-09 13:45:16.331,0.8597911,-0.048820533,0.4464761,0.78131205,0.708797,-0.042464834,-0.10327818,0.25318387,0.8010454,0.009861804,0.26629034,0.54405236,0.58039176,0.19581558,0.5060181,0.8664078,0.24264753,-0.24088493,0.4977235,0.44817317,802.23444,824.3956,813.91943,833.2601,975.09155,0.0,0.0,0.1422119140625,0.0301513671875,0.99285888671875,1.95892333984375,-5.3533935546875,-1.069183349609375,1437655.6776556775,95964322.34432234,52053772.89377289,68.29012,1.0,1.0,1.0,1.0,1.0,20.0,,0 days 00:00:00.001000
2023-11-09 13:45:16.331,0.8597911,-0.048820533,0.4464761,0.78131205,0.708797,-0.042464834,-0.10327818,0.25318387,0.8010454,0.009861804,0.26629034,0.54405236,0.58039176,0.19581558,0.5060181,0.8664078,0.24264753,-0.24088493,0.4977235,0.44817317,786.52014,830.84247,829.6337,813.1135,724.87177,0.0,0.0,0.1422119140625,0.0301513671875,0.99285888671875,1.95892333984375,-5.3533935546875,-1.069183349609375,1437655.6776556775,95964322.34432234,52053772.89377289,68.29012,1.0,1.0,1.0,1.0,1.0,20.0,,0 days 00:00:00
2023-11-09 13:45:16.332,0.8597911,-0.048820533,0.4464761,0.78131205,0.708797,-0.042464834,-0.10327818,0.25318387,0.8010454,0.009861804,0.26629034,0.54405236,0.58039176,0.19581558,0.5060181,0.8664078,0.24264753,-0.24088493,0.4977235,0.44817317,795.38464,822.7839,834.0659,803.8461,699.0842,0.0,0.0,0.1422119140625,0.0301513671875,0.99285888671875,1.95892333984375,-5.3533935546875,-1.069183349609375,1437655.6776556775,95964322.34432234,52053772.89377289,68.29012,1.0,1.0,1.0,1.0,1.0,20.0,,0 days 00:00:00.001000
2023-11-09 13:45:16.372,0.8597911,-0.048820533,0.4464761,0.78131205,0.708797,-0.042464834,-0.10327818,0.25318387,0.8010454,0.009861804,0.26629034,0.54405236,0.58039176,0.19581558,0.5060181,0.8664078,0.24264753,-0.24088493,0.4977235,0.44817317,800.6227,821.1722,826.0073,808.2784,742.6007,0.0,0.0,0.1422119140625,0.0301513671875,0.99285888671875,1.95892333984375,-5.3533935546875,-1.069183349609375,1436043.956043956,95897435.89743587,52015091.57509157,68.29012,1.0,1.0,1.0,1.0,1.0,20.0,,0 days 00:00:00.040000
2023-11-09 13:45:16.373,0.8597911,-0.048820533,0.4464761,0.78131205,0.708797,-0.042464834,-0.10327818,0.25318387,0.8010454,0.009861804,0.26629034,0.54405236,0.58039176,0.19581558,0.5060181,0.8664078,0.24264753,-0.24088493,0.4977235,0.44817317,800.2198,819.15753,819.5604,803.0403,733.3333,0.0,0.0,0.1422119140625,0.0301513671875,0.99285888671875,1.95892333984375,-5.3533935546875,-1.069183349609375,1436043.956043956,95897435.89743587,52015091.57509157,68.29012,1.0,1.0,1.0,1.0,1.0,20.0,,0 days 00:00:00.001000
2023-11-09 13:45:16.374,0.8597911,-0.048820533,0.4464761,0.78131205,0.708797,-0.042464834,-0.10327818,0.25318387,0.8010454,0.009861804,0.26629034,0.54405236,0.58039176,0.19581558,0.5060181,0.8664078,0.24264753,-0.24088493,0.4977235,0.44817317,800.2198,817.5458,814.7253,787.326,724.0659,0.0,0.0,0.1422119140625,0.0301513671875,0.99285888671875,1.95892333984375,-5.3533935546875,-1.069183349609375,1436043.956043956,95897435.89743587,52015091.57509157,68.29012,1.0,1.0,1.0,1.0,1.0,20.0,,0 days 00:00:00.001000
2023-11-09 13:45:16.374,0.8597911,-0.048820533,0.4464761,0.78131205,0.708797,-0.042464834,-0.10327818,0.25318387,0.8010454,0.009861804,0.26629034,0.54405236,0.58039176,0.19581558,0.5060181,0.8664078,0.24264753,-0.24088493,0.4977235,0.44817317,800.6227,815.9341,807.47253,795.78754,829.2308,0.0,0.0,0.1422119140625,0.0301513671875,0.99285888671875,1.95892333984375,-5.3533935546875,-1.069183349609375,1436043.956043956,95897435.89743587,52015091.57509157,68.29012,1.0,1.0,1.0,1.0,1.0,20.0,,0 days 00:00:00
2023-11-09 13:45:16.375,0.8597911,-0.048820533,0.4464761,0.78131205,0.708797,-0.042464834,-0.10327818,0.25318387,0.8010454,0.009861804,0.26629034,0.54405236,0.58039176,0.19581558,0.5060181,0.8664078,0.24264753,-0.24088493,0.4977235,0.44817317,805.8608,817.9487,808.2784,830.84247,922.71063,0.0,0.0,0.1422119140625,0.0301513671875,0.99285888671875,1.95892333984375,-5.3533935546875,-1.069183349609375,1436043.956043956,95897435.89743587,52015091.57509157,68.29012,1.0,1.0,1.0,1.0,1.0,20.0,,0 days 00:00:00.001000
2023-11-09 13:45:16.375,0.8597911,-0.048820533,0.4464761,0.78131205,0.708797,-0.042464834,-0.10327818,0.25318387,0.8010454,0.009861804,0.26629034,0.54405236,0.58039176,0.19581558,0.5060181,0.8664078,0.24264753,-0.24088493,0.4977235,0.44817317,802.6374,826.8132,817.1429,818.3516,787.326,0.0,0.0,0.1422119140625,0.0301513671875,0.99285888671875,1.95892333984375,-5.3533935546875,-1.069183349609375,1436043.956043956,95897435.89743587,52015091.57509157,68.29012,1.0,1.0,1.0,1.0,1.0,20.0,,0 days 00:00:00
2023-11-09 13:45:16.376,0.8597911,-0.048820533,0.4464761,0.78131205,0.708797,-0.042464834,-0.10327818,0.25318387,0.8010454,0.009861804,0.26629034,0.54405236,0.58039176,0.19581558,0.5060181,0.8664078,0.24264753,-0.24088493,0.4977235,0.44817317,833.2601,830.84247,807.47253,812.71063,704.3223,0.0,0.0,0.1422119140625,0.0301513671875,0.99285888671875,1.95892333984375,-5.3533935546875,-1.069183349609375,1436043.956043956,95897435.89743587,52015091.57509157,68.29012,1.0,1.0,1.0,1.0,1.0,20.0,,0 days 00:00:00.001000
2023-11-09 13:45:16.376,0.8597911,-0.048820533,0.4464761,0.78131205,0.708797,-0.042464834,-0.10327818,0.25318387,0.8010454,0.009861804,0.26629034,0.54405236,0.58039176,0.19581558,0.5060181,0.8664078,0.24264753,-0.24088493,0.4977235,0.44817317,836.08057,818.3516,807.47253,823.1868,794.9817,0.0,0.0,0.1422119140625,0.0301513671875,0.99285888671875,1.95892333984375,-5.3533935546875,-1.069183349609375,1436043.956043956,95897435.89743587,52015091.57509157,68.29012,1.0,1.0,1.0,1.0,1.0,20.0,,0 days 00:00:00
2023-11-09 13:45:16.377,0.8597911,-0.048820533,0.4464761,0.78131205,0.708797,-0.042464834,-0.10327818,0.25318387,0.8010454,0.009861804,0.26629034,0.54405236,0.58039176,0.19581558,0.5060181,0.8664078,0.24264753,-0.24088493,0.4977235,0.44817317,786.1172,820.3663,816.337,783.2967,917.0696,0.0,0.0,0.1422119140625,0.0301513671875,0.99285888671875,1.95892333984375,-5.3533935546875,-1.069183349609375,1436043.956043956,95897435.89743587,52015091.57509157,68.29012,1.0,1.0,1.0,1.0,1.0,20.0,,0 days 00:00:00.001000
2023-11-09 13:45:16.377,0.8597911,-0.048820533,0.4464761,0.78131205,0.708797,-0.042464834,-0.10327818,0.25318387,0.8010454,0.009861804,0.26629034,0.54405236,0.58039176,0.19581558,0.5060181,0.8664078,0.24264753,-0.24088493,0.4977235,0.44817317,774.43225,832.8571,827.619,770.80585,747.8388,0.0,0.0,0.1422119140625,0.0301513671875,0.99285888671875,1.95892333984375,-5.3533935546875,-1.069183349609375,1436043.956043956,95897435.89743587,52015091.57509157,68.29012,1.0,1.0,1.0,1.0,1.0,20.0,,0 days 00:00:00
2023-11-09 13:45:16.378,0.8597911,-0.048820533,0.4464761,0.78131205,0.708797,-0.042464834,-0.10327818,0.25318387,0.8010454,0.009861804,0.26629034,0.54405236,0.58039176,0.19581558,0.5060181,0.8664078,0.24264753,-0.24088493,0.4977235,0.44817317,784.5055,827.619,834.0659,784.90845,662.8205,0.0,0.0,0.1422119140625,0.0301513671875,0.99285888671875,1.95892333984375,-5.3533935546875,-1.069183349609375,1436043.956043956,95897435.89743587,52015091.57509157,68.29012,1.0,1.0,1.0,1.0,1.0,20.0,,0 days 00:00:00.001000
2023-11-09 13:45:16.378,0.8597911,-0.048820533,0.4464761,0.78131205,0.708797,-0.042464834,-0.10327818,0.25318387,0.8010454,0.009861804,0.26629034,0.54405236,0.58039176,0.19581558,0.5060181,0.8664078,0.24264753,-0.24088493,0.4977235,0.44817317,786.9231,825.6044,833.2601,789.7436,734.1392,0.0,0.0,0.1422119140625,0.0301513671875,0.99285888671875,1.95892333984375,-5.3533935546875,-1.069183349609375,1436043.956043956,95897435.89743587,52015091.57509157,68.29012,1.0,1.0,1.0,1.0,1.0,20.0,,0 days 00:00:00
2023-11-09 13:45:16.401,0.8597911,-0.048820533,0.4464761,0.78131205,0.708797,-0.042464834,-0.10327818,0.25318387,0.8010454,0.009861804,0.26629034,0.54405236,0.58039176,0.19581558,0.5060181,0.8664078,0.24264753,-0.24088493,0.4977235,0.44817317,792.96704,830.4396,832.4542,801.4286,705.12823,0.0,0.0,0.14642333984375,0.02691650390625,0.99951171875,2.27294921875,-5.75714111328125,-2.04864501953125,1436043.956043956,95897435.89743587,52015091.57509157,68.29012,1.0,1.0,1.0,1.0,1.0,20.0,,0 days 00:00:00.023000
2023-11-09 13:45:16.401,0.8597911,-0.048820533,0.4464761,0.78131205,0.708797,-0.042464834,-0.10327818,0.25318387,0.8010454,0.009861804,0.26629034,0.54405236,0.58039176,0.19581558,0.5060181,0.8664078,0.24264753,-0.24088493,0.4977235,0.44817317,787.326,826.4103,830.84247,784.90845,699.4872,0.0,0.0,0.14642333984375,0.02691650390625,0.99951171875,2.27294921875,-5.75714111328125,-2.04864501953125,1436043.956043956,95897435.89743587,52015091.57509157,68.29012,1.0,1.0,1.0,1.0,1.0,20.0,,0 days 00:00:00
2023-11-09 13:45:16.402,0.8597911,-0.048820533,0.4464761,0.78131205,0.708797,-0.042464834,-0.10327818,0.25318387,0.8010454,0.009861804,0.26629034,0.54405236,0.58039176,0.19581558,0.5060181,0.8664078,0.24264753,-0.24088493,0.4977235,0.44817317,778.0586,816.7399,830.4396,782.0879,742.1978,0.0,0.0,0.14642333984375,0.02691650390625,0.99951171875,2.27294921875,-5.75714111328125,-2.04864501953125,1436043.956043956,95897435.89743587,52015091.57509157,68.29012,1.0,1.0,1.0,1.0,1.0,20.0,,0 days 00:00:00.001000
2023-11-09 13:45:16.402,0.89875996,-0.062955774,0.4557308,0.77168816,0.714831,-0.015540549,-0.09881967,0.22997291,0.8010454,0.009957604,0.29637977,0.56663376,0.59264404,0.20467569,0.5179025,0.864551,0.25385416,-0.25117448,0.50500274,0.43588233,782.0879,814.7253,830.0366,805.8608,768.3883,0.0,0.0,0.14642333984375,0.02691650390625,0.99951171875,2.27294921875,-5.75714111328125,-2.04864501953125,1436043.956043956,95897435.89743587,52015091.57509157,68.29012,1.0,1.0,1.0,1.0,1.0,20.0,,0 days 00:00:00
2023-11-09 13:45:16.404,0.89875996,-0.062955774,0.4557308,0.77168816,0.714831,-0.015540549,-0.09881967,0.22997291,0.8010454,0.009957604,0.29637977,0.56663376,0.59264404,0.20467569,0.5179025,0.864551,0.25385416,-0.25117448,0.50500274,0.43588233,790.54944,812.71063,824.3956,807.8755,765.56775,0.0,0.0,0.14642333984375,0.02691650390625,0.99951171875,2.27294921875,-5.75714111328125,-2.04864501953125,1436043.956043956,95897435.89743587,52015091.57509157,68.29012,1.0,1.0,1.0,1.0,1.0,20.0,,0 days 00:00:00.002000
2023-11-09 13:45:16.404,0.89875996,-0.062955774,0.4557308,0.77168816,0.714831,-0.015540549,-0.09881967,0.22997291,0.8010454,0.009957604,0.29637977,0.56663376,0.59264404,0.20467569,0.5179025,0.864551,0.25385416,-0.25117448,0.50500274,0.43588233,778.86444,814.7253,816.7399,802.23444,784.10254,0.0,0.0,0.14642333984375,0.02691650390625,0.99951171875,2.27294921875,-5.75714111328125,-2.04864501953125,1436043.956043956,95897435.89743587,52015091.57509157,68.29012,1.0,1.0,1.0,1.0,1.0,20.0,,0 days 00:00:00
2023-11-09 13:45:16.405,0.89875996,-0.062955774,0.4557308,0.77168816,0.714831,-0.015540549,-0.09881967,0.22997291,0.8010454,0.009957604,0.29637977,0.56663376,0.59264404,0.20467569,0.5179025,0.864551,0.25385416,-0.25117448,0.50500274,0.43588233,767.5824,819.15753,819.9634,805.4579,843.3333,0.0,0.0,0.14642333984375,0.02691650390625,0.99951171875,2.27294921875,-5.75714111328125,-2.04864501953125,1436043.956043956,95897435.89743587,52015091.57509157,68.29012,1.0,1.0,1.0,1.0,1.0,20.0,,0 days 00:00:00.001000
2023-11-09 13:45:16.405,0.89875996,-0.062955774,0.4557308,0.77168816,0.714831,-0.015540549,-0.09881967,0.22997291,0.8010454,0.009957604,0.29637977,0.56663376,0.59264404,0.20467569,0.5179025,0.864551,0.25385416,-0.25117448,0.50500274,0.43588233,780.87915,811.50183,823.5897,819.15753,947.6923,0.0,0.0,0.14642333984375,0.02691650390625,0.99951171875,2.27294921875,-5.75714111328125,-2.04864501953125,1436043.956043956,95897435.89743587,52015091.57509157,68.29012,1.0,1.0,1.0,1.0,1.0,20.0,,0 days 00:00:00
2023-11-09 13:45:16.405,0.89875996,-0.062955774,0.4557308,0.77168816,0.714831,-0.015540549,-0.09881967,0.22997291,0.8010454,0.009957604,0.29637977,0.56663376,0.59264404,0.20467569,0.5179025,0.864551,0.25385416,-0.25117448,0.50500274,0.43588233,780.4762,814.7253,830.84247,816.337,885.2381,0.0,0.0,0.14642333984375,0.02691650390625,0.99951171875,2.27294921875,-5.75714111328125,-2.04864501953125,1436043.956043956,95897435.89743587,52015091.57509157,68.29012,1.0,1.0,1.0,1.0,1.0,20.0,,0 days 00:00:00
2023-11-09 13:45:16.406,0.89875996,-0.062955774,0.4557308,0.77168816,0.714831,-0.015540549,-0.09881967,0.22997291,0.8010454,0.009957604,0.29637977,0.56663376,0.59264404,0.20467569,0.5179025,0.864551,0.25385416,-0.25117448,0.50500274,0.43588233,776.04395,818.7546,837.6923,807.47253,717.2161,0.0,0.0,0.14642333984375,0.02691650390625,0.99951171875,2.27294921875,-5.75714111328125,-2.04864501953125,1436043.956043956,95897435.89743587,52015091.57509157,68.29012,1.0,1.0,1.0,1.0,1.0,20.0,,0 days 00:00:00.001000
2023-11-09 13:45:16.406,0.89875996,-0.062955774,0.4557308,0.77168816,0.714831,-0.015540549,-0.09881967,0.22997291,0.8010454,0.009957604,0.29637977,0.56663376,0.59264404,0.20467569,0.5179025,0.864551,0.25385416,-0.25117448,0.50500274,0.43588233,799.81683,818.7546,828.4249,810.293,725.2747,0.0,0.0,0.14642333984375,0.02691650390625,0.99951171875,2.27294921875,-5.75714111328125,-2.04864501953125,1436043.956043956,95897435.89743587,52015091.57509157,68.29012,1.0,1.0,1.0,1.0,1.0,20.0,,0 days 00:00:00
2023-11-09 13:45:16.406,0.89875996,-0.062955774,0.4557308,0.77168816,0.714831,-0.015540549,-0.09881967,0.22997291,0.8010454,0.009957604,0.29637977,0.56663376,0.59264404,0.20467569,0.5179025,0.864551,0.25385416,-0.25117448,0.50500274,0.43588233,797.8022,808.2784,813.5165,825.6044,941.2454,0.0,0.0,0.14642333984375,0.02691650390625,0.99951171875,2.27294921875,-5.75714111328125,-2.04864501953125,1436043.956043956,95897435.89743587,52015091.57509157,68.29012,1.0,1.0,1.0,1.0,1.0,20.0,,0 days 00:00:00
2023-11-09 13:45:16.470,0.89875996,-0.062955774,0.4557308,0.77168816,0.714831,-0.015540549,-0.09881967,0.22997291,0.8010454,0.009957604,0.29637977,0.56663376,0.59264404,0.20467569,0.5179025,0.864551,0.25385416,-0.25117448,0.50500274,0.43588233,791.3553,813.5165,812.3077,827.2161,968.6447,0.0,0.0,0.14813232421875,0.02777099609375,0.99383544921875,1.62994384765625,-5.839385986328125,-1.5252685546875,1430402.9304029304,95914358.97435898,52077948.71794872,68.29012,1.0,1.0,1.0,1.0,1.0,20.0,,0 days 00:00:00.064000
2023-11-09 13:45:16.471,0.89875996,-0.062955774,0.4557308,0.77168816,0.714831,-0.015540549,-0.09881967,0.22997291,0.8010454,0.009957604,0.29637977,0.56663376,0.59264404,0.20467569,0.5179025,0.864551,0.25385416,-0.25117448,0.50500274,0.43588233,797.3993,830.84247,813.1135,809.4872,745.42126,0.0,0.0,0.14813232421875,0.02777099609375,0.99383544921875,1.62994384765625,-5.839385986328125,-1.5252685546875,1430402.9304029304,95914358.97435898,52077948.71794872,68.29012,1.0,1.0,1.0,1.0,1.0,20.0,,0 days 00:00:00.001000
2023-11-09 13:45:16.471,0.89875996,-0.062955774,0.4557308,0.77168816,0.714831,-0.015540549,-0.09881967,0.22997291,0.8010454,0.009957604,0.29637977,0.56663376,0.59264404,0.20467569,0.5179025,0.864551,0.25385416,-0.25117448,0.50500274,0.43588233,788.1319,819.9634,818.7546,799.41394,761.53845,0.0,0.0,0.14813232421875,0.02777099609375,0.99383544921875,1.62994384765625,-5.839385986328125,-1.5252685546875,1430402.9304029304,95914358.97435898,52077948.71794872,68.29012,1.0,1.0,1.0,1.0,1.0,20.0,,0 days 00:00:00
2023-11-09 13:45:16.472,0.89875996,-0.062955774,0.4557308,0.77168816,0.714831,-0.015540549,-0.09881967,0.22997291,0.8010454,0.009957604,0.29637977,0.56663376,0.59264404,0.20467569,0.5179025,0.864551,0.25385416,-0.25117448,0.50500274,0.43588233,779.2674,817.5458,832.8571,794.17584,832.8571,0.0,0.0,0.14813232421875,0.02777099609375,0.99383544921875,1.62994384765625,-5.839385986328125,-1.5252685546875,1430402.9304029304,95914358.97435898,52077948.71794872,68.29012,1.0,1.0,1.0,1.0,1.0,20.0,,0 days 00:00:00.001000
2023-11-09 13:45:16.472,0.89875996,-0.062955774,0.4557308,0.77168816,0.714831,-0.015540549,-0.09881967,0.22997291,0.8010454,0.009957604,0.29637977,0.56663376,0.59264404,0.20467569,0.5179025,0.864551,0.25385416,-0.25117448,0.50500274,0.43588233,795.78754,828.022,834.87177,820.7692,799.011,0.0,0.0,0.14813232421875,0.02777099609375,0.99383544921875,1.62994384765625,-5.839385986328125,-1.5252685546875,1430402.9304029304,95914358.97435898,52077948.71794872,68.29012,1.0,1.0,1.0,1.0,1.0,20.0,,0 days 00:00:00
2023-11-09 13:45:16.473,0.89875996,-0.062955774,0.4557308,0.77168816,0.714831,-0.015540549,-0.09881967,0.22997291,0.8010454,0.009957604,0.29637977,0.56663376,0.59264404,0.20467569,0.5179025,0.864551,0.25385416,-0.25117448,0.50500274,0.43588233,792.96704,829.2308,830.4396,834.0659,771.6117,0.0,0.0,0.14813232421875,0.02777099609375,0.99383544921875,1.62994384765625,-5.839385986328125,-1.5252685546875,1430402.9304029304,95914358.97435898,52077948.71794872,68.29012,1.0,1.0,1.0,1.0,1.0,20.0,,0 days 00:00:00.001000
2023-11-09 13:45:16.473,0.89875996,-0.062955774,0.4557308,0.77168816,0.714831,-0.015540549,-0.09881967,0.22997291,0.8010454,0.009957604,0.29637977,0.56663376,0.59264404,0.20467569,0.5179025,0.864551,0.25385416,-0.25117448,0.50500274,0.43588233,775.2381,816.337,820.3663,834.87177,862.674,0.0,0.0,0.14813232421875,0.02777099609375,0.99383544921875,1.62994384765625,-5.839385986328125,-1.5252685546875,1430402.9304029304,95914358.97435898,52077948.71794872,68.29012,1.0,1.0,1.0,1.0,1.0,20.0,,0 days 00:00:00
2023-11-09 13:45:16.473,0.89875996,-0.062955774,0.4557308,0.77168816,0.714831,-0.015540549,-0.09881967,0.22997291,0.8010454,0.009957604,0.29637977,0.56663376,0.59264404,0.20467569,0.5179025,0.864551,0.25385416,-0.25117448,0.50500274,0.43588233,790.14655,815.5311,815.12823,831.6484,1017.8022,0.0,0.0,0.14813232421875,0.02777099609375,0.99383544921875,1.62994384765625,-5.839385986328125,-1.5252685546875,1430402.9304029304,95914358.97435898,52077948.71794872,68.29012,1.0,1.0,1.0,1.0,1.0,20.0,,0 days 00:00:00
2023-11-09 13:45:16.474,0.89875996,-0.062955774,0.4557308,0.77168816,0.714831,-0.015540549,-0.09881967,0.22997291,0.8010454,0.009957604,0.29637977,0.56663376,0.59264404,0.20467569,0.5179025,0.864551,0.25385416,-0.25117448,0.50500274,0.43588233,782.0879,826.0073,826.0073,819.9634,880.40295,0.0,0.0,0.14813232421875,0.02777099609375,0.99383544921875,1.62994384765625,-5.839385986328125,-1.5252685546875,1430402.9304029304,95914358.97435898,52077948.71794872,68.29012,1.0,1.0,1.0,1.0,1.0,20.0,,0 days 00:00:00.001000
2023-11-09 13:45:16.474,0.89875996,-0.062955774,0.4557308,0.77168816,0.714831,-0.015540549,-0.09881967,0.22997291,0.8010454,0.009957604,0.29637977,0.56663376,0.59264404,0.20467569,0.5179025,0.864551,0.25385416,-0.25117448,0.50500274,0.43588233,765.16486,820.7692,823.9927,828.8278,763.5531,0.0,0.0,0.14813232421875,0.02777099609375,0.99383544921875,1.62994384765625,-5.839385986328125,-1.5252685546875,1430402.9304029304,95914358.97435898,52077948.71794872,68.29012,1.0,1.0,1.0,1.0,1.0,20.0,,0 days 00:00:00
2023-11-09 13:45:16.475,0.89875996,-0.062955774,0.4557308,0.77168816,0.714831,-0.015540549,-0.09881967,0.22997291,0.8010454,0.009957604,0.29637977,0.56663376,0.59264404,0.20467569,0.5179025,0.864551,0.25385416,-0.25117448,0.50500274,0.43588233,791.3553,817.9487,807.47253,828.4249,888.86444,0.0,0.0,0.14813232421875,0.02777099609375,0.99383544921875,1.62994384765625,-5.839385986328125,-1.5252685546875,1430402.9304029304,95914358.97435898,52077948.71794872,68.29012,1.0,1.0,1.0,1.0,1.0,20.0,,0 days 00:00:00.001000
2023-11-09 13:45:16.475,0.89875996,-0.062955774,0.4557308,0.77168816,0.714831,-0.015540549,-0.09881967,0.22997291,0.8010454,0.009957604,0.29637977,0.56663376,0.59264404,0.20467569,0.5179025,0.864551,0.25385416,-0.25117448,0.50500274,0.43588233,790.54944,826.4103,816.337,821.1722,861.06226,0.0,0.0,0.14813232421875,0.02777099609375,0.99383544921875,1.62994384765625,-5.839385986328125,-1.5252685546875,1430402.9304029304,95914358.97435898,52077948.71794872,68.29012,1.0,1.0,1.0,1.0,1.0,20.0,,0 days 00:00:00
2023-11-09 13:45:16.500,0.89875996,-0.062955774,0.4557308,0.77168816,0.714831,-0.015540549,-0.09881967,0.22997291,0.8010454,0.009957604,0.29637977,0.56663376,0.59264404,0.20467569,0.5179025,0.864551,0.25385416,-0.25117448,0.50500274,0.43588233,767.1795,823.5897,831.2454,804.65204,743.00366,0.0,0.0,0.1558837890625,0.03118896484375,0.9801025390625,3.207550048828125,-6.80389404296875,-0.859832763671875,1430402.9304029304,95914358.97435898,52077948.71794872,68.29012,1.0,1.0,1.0,1.0,1.0,20.0,,0 days 00:00:00.025000
2023-11-09 13:45:16.501,0.89875996,-0.062955774,0.4557308,0.77168816,0.714831,-0.015540549,-0.09881967,0.22997291,0.8010454,0.009957604,0.29637977,0.56663376,0.59264404,0.20467569,0.5179025,0.864551,0.25385416,-0.25117448,0.50500274,0.43588233,791.3553,824.7985,822.7839,808.2784,759.12085,0.0,0.0,0.1558837890625,0.03118896484375,0.9801025390625,3.207550048828125,-6.80389404296875,-0.859832763671875,1430402.9304029304,95914358.97435898,52077948.71794872,68.29012,1.0,1.0,1.0,1.0,1.0,20.0,,0 days 00:00:00.001000
2023-11-09 13:45:16.502,0.89875996,-0.062955774,0.4557308,0.77168816,0.714831,-0.015540549,-0.09881967,0.22997291,0.8010454,0.009957604,0.29637977,0.56663376,0.59264404,0.20467569,0.5179025,0.864551,0.25385416,-0.25117448,0.50500274,0.43588233,804.2491,827.2161,815.12823,832.8571,790.9524,0.0,0.0,0.1558837890625,0.03118896484375,0.9801025390625,3.207550048828125,-6.80389404296875,-0.859832763671875,1430402.9304029304,95914358.97435898,52077948.71794872,68.29012,1.0,1.0,1.0,1.0,1.0,20.0,,0 days 00:00:00.001000
2023-11-09 13:45:16.502,0.89875996,-0.062955774,0.4557308,0.77168816,0.714831,-0.015540549,-0.09881967,0.22997291,0.8010454,0.009957604,0.29637977,0.56663376,0.59264404,0.20467569,0.5179025,0.864551,0.25385416,-0.25117448,0.50500274,0.43588233,790.9524,823.9927,828.022,817.9487,755.89746,0.0,0.0,0.1558837890625,0.03118896484375,0.9801025390625,3.207550048828125,-6.80389404296875,-0.859832763671875,1430402.9304029304,95914358.97435898,52077948.71794872,68.29012,1.0,1.0,1.0,1.0,1.0,20.0,,0 days 00:00:00
2023-11-09 13:45:16.502,0.89875996,-0.062955774,0.4557308,0.77168816,0.714831,-0.015540549,-0.09881967,0.22997291,0.8010454,0.009957604,0.29637977,0.56663376,0.59264404,0.20467569,0.5179025,0.864551,0.25385416,-0.25117448,0.50500274,0.43588233,809.89014,829.6337,832.0513,810.696,809.0842,0.0,0.0,0.1558837890625,0.03118896484375,0.9801025390625,3.207550048828125,-6.80389404296875,-0.859832763671875,1430402.9304029304,95914358.97435898,52077948.71794872,68.29012,1.0,1.0,1.0,1.0,1.0,20.0,,0 days 00:00:00
2023-11-09 13:45:16.503,0.9764229,-0.09349569,0.46132818,0.7571176,0.745891,-0.013736688,-0.08376515,0.21689825,0.8010454,0.011362633,0.35549888,0.57686144,0.60440695,0.22333832,0.53101027,0.85656387,0.2619683,-0.2573331,0.50532216,0.42810243,811.0989,827.2161,827.619,805.4579,835.2747,0.0,0.0,0.1558837890625,0.03118896484375,0.9801025390625,3.207550048828125,-6.80389404296875,-0.859832763671875,1430402.9304029304,95914358.97435898,52077948.71794872,68.29012,1.0,1.0,1.0,1.0,1.0,20.0,,0 days 00:00:00.001000
2023-11-09 13:45:16.505,0.9764229,-0.09349569,0.46132818,0.7571176,0.745891,-0.013736688,-0.08376515,0.21689825,0.8010454,0.011362633,0.35549888,0.57686144,0.60440695,0.22333832,0.53101027,0.85656387,0.2619683,-0.2573331,0.50532216,0.42810243,789.7436,810.293,817.1429,811.50183,967.8388,0.0,0.0,0.1558837890625,0.03118896484375,0.9801025390625,3.207550048828125,-6.80389404296875,-0.859832763671875,1430402.9304029304,95914358.97435898,52077948.71794872,68.29012,1.0,1.0,1.0,1.0,1.0,20.0,,0 days 00:00:00.002000
2023-11-09 13:45:16.506,0.9764229,-0.09349569,0.46132818,0.7571176,0.745891,-0.013736688,-0.08376515,0.21689825,0.8010454,0.011362633,0.35549888,0.57686144,0.60440695,0.22333832,0.53101027,0.85656387,0.2619683,-0.2573331,0.50532216,0.42810243,813.1135,810.696,816.337,845.7509,1161.6483,0.0,0.0,0.1558837890625,0.03118896484375,0.9801025390625,3.207550048828125,-6.80389404296875,-0.859832763671875,1430402.9304029304,95914358.97435898,52077948.71794872,68.29012,1.0,1.0,1.0,1.0,1.0,20.0,,0 days 00:00:00.001000
2023-11-09 13:45:16.506,0.9764229,-0.09349569,0.46132818,0.7571176,0.745891,-0.013736688,-0.08376515,0.21689825,0.8010454,0.011362633,0.35549888,0.57686144,0.60440695,0.22333832,0.53101027,0.85656387,0.2619683,-0.2573331,0.50532216,0.42810243,832.4542,831.6484,822.7839,814.3223,889.2674,0.0,0.0,0.1558837890625,0.03118896484375,0.9801025390625,3.207550048828125,-6.80389404296875,-0.859832763671875,1430402.9304029304,95914358.97435898,52077948.71794872,68.29012,1.0,1.0,1.0,1.0,1.0,20.0,,0 days 00:00:00
2023-11-09 13:45:16.506,0.9764229,-0.09349569,0.46132818,0.7571176,0.745891,-0.013736688,-0.08376515,0.21689825,0.8010454,0.011362633,0.35549888,0.57686144,0.60440695,0.22333832,0.53101027,0.85656387,0.2619683,-0.2573331,0.50532216,0.42810243,807.8755,827.619,821.978,799.81683,728.0952,0.0,0.0,0.1558837890625,0.03118896484375,0.9801025390625,3.207550048828125,-6.80389404296875,-0.859832763671875,1430402.9304029304,95914358.97435898,52077948.71794872,68.29012,1.0,1.0,1.0,1.0,1.0,20.0,,0 days 00:00:00
2023-11-09 13:45:16.507,0.9764229,-0.09349569,0.46132818,0.7571176,0.745891,-0.013736688,-0.08376515,0.21689825,0.8010454,0.011362633,0.35549888,0.57686144,0.60440695,0.22333832,0.53101027,0.85656387,0.2619683,-0.2573331,0.50532216,0.42810243,794.9817,821.978,815.5311,821.5751,820.7692,0.0,0.0,0.1558837890625,0.03118896484375,0.9801025390625,3.207550048828125,-6.80389404296875,-0.859832763671875,1430402.9304029304,95914358.97435898,52077948.71794872,68.29012,1.0,1.0,1.0,1.0,1.0,20.0,,0 days 00:00:00.001000
2023-11-09 13:45:16.507,0.9764229,-0.09349569,0.46132818,0.7571176,0.745891,-0.013736688,-0.08376515,0.21689825,0.8010454,0.011362633,0.35549888,0.57686144,0.60440695,0.22333832,0.53101027,0.85656387,0.2619683,-0.2573331,0.50532216,0.42810243,802.6374,826.8132,809.4872,815.12823,795.78754,0.0,0.0,0.1558837890625,0.03118896484375,0.9801025390625,3.207550048828125,-6.80389404296875,-0.859832763671875,1430402.9304029304,95914358.97435898,52077948.71794872,68.29012,1.0,1.0,1.0,1.0,1.0,20.0,,0 days 00:00:00
2023-11-09 13:45:16.617,0.9764229,-0.09349569,0.46132818,0.7571176,0.745891,-0.013736688,-0.08376515,0.21689825,0.8010454,0.011362633,0.35549888,0.57686144,0.60440695,0.22333832,0.53101027,0.85656387,0.2619683,-0.2573331,0.50532216,0.42810243,824.3956,820.7692,826.0073,809.4872,768.3883,0.0,0.0,0.155029296875,0.021728515625,0.99114990234375,2.22808837890625,-5.5328369140625,-0.306549072265625,1425567.7655677656,95875677.65567765,52027985.34798535,68.29012,1.0,1.0,1.0,1.0,1.0,20.0,,0 days 00:00:00.110000
2023-11-09 13:45:16.618,0.9764229,-0.09349569,0.46132818,0.7571176,0.745891,-0.013736688,-0.08376515,0.21689825,0.8010454,0.011362633,0.35549888,0.57686144,0.60440695,0.22333832,0.53101027,0.85656387,0.2619683,-0.2573331,0.50532216,0.42810243,833.2601,818.7546,830.4396,816.7399,832.8571,0.0,0.0,0.155029296875,0.021728515625,0.99114990234375,2.22808837890625,-5.5328369140625,-0.306549072265625,1425567.7655677656,95875677.65567765,52027985.34798535,68.29012,1.0,1.0,1.0,1.0,1.0,20.0,,0 days 00:00:00.001000
2023-11-09 13:45:16.618,0.9764229,-0.09349569,0.46132818,0.7571176,0.745891,-0.013736688,-0.08376515,0.21689825,0.8010454,0.011362633,0.35549888,0.57686144,0.60440695,0.22333832,0.53101027,0.85656387,0.2619683,-0.2573331,0.50532216,0.42810243,817.5458,822.381,819.9634,812.71063,869.5238,0.0,0.0,0.155029296875,0.021728515625,0.99114990234375,2.22808837890625,-5.5328369140625,-0.306549072265625,1425567.7655677656,95875677.65567765,52027985.34798535,68.29012,1.0,1.0,1.0,1.0,1.0,20.0,,0 days 00:00:00
2023-11-09 13:45:16.618,0.9764229,-0.09349569,0.46132818,0.7571176,0.745891,-0.013736688,-0.08376515,0.21689825,0.8010454,0.011362633,0.35549888,0.57686144,0.60440695,0.22333832,0.53101027,0.85656387,0.2619683,-0.2573331,0.50532216,0.42810243,824.3956,830.0366,821.5751,801.4286,780.87915,0.0,0.0,0.155029296875,0.021728515625,0.99114990234375,2.22808837890625,-5.5328369140625,-0.306549072265625,1425567.7655677656,95875677.65567765,52027985.34798535,68.29012,1.0,1.0,1.0,1.0,1.0,20.0,,0 days 00:00:00
2023-11-09 13:45:16.618,0.9764229,-0.09349569,0.46132818,0.7571176,0.745891,-0.013736688,-0.08376515,0.21689825,0.8010454,0.011362633,0.35549888,0.57686144,0.60440695,0.22333832,0.53101027,0.85656387,0.2619683,-0.2573331,0.50532216,0.42810243,838.0952,830.4396,821.1722,799.81683,730.9158,0.0,0.0,0.155029296875,0.021728515625,0.99114990234375,2.22808837890625,-5.5328369140625,-0.306549072265625,1425567.7655677656,95875677.65567765,52027985.34798535,68.29012,1.0,1.0,1.0,1.0,1.0,20.0,,0 days 00:00:00
2023-11-09 13:45:16.619,0.9764229,-0.09349569,0.46132818,0.7571176,0.745891,-0.013736688,-0.08376515,0.21689825,0.8010454,0.011362633,0.35549888,0.57686144,0.60440695,0.22333832,0.53101027,0.85656387,0.2619683,-0.2573331,0.50532216,0.42810243,848.1685,826.4103,818.3516,822.381,872.74725,0.0,0.0,0.155029296875,0.021728515625,0.99114990234375,2.22808837890625,-5.5328369140625,-0.306549072265625,1425567.7655677656,95875677.65567765,52027985.34798535,68.29012,1.0,1.0,1.0,1.0,1.0,20.0,,0 days 00:00:00.001000
2023-11-09 13:45:16.619,0.9764229,-0.09349569,0.46132818,0.7571176,0.745891,-0.013736688,-0.08376515,0.21689825,0.8010454,0.011362633,0.35549888,0.57686144,0.60440695,0.22333832,0.53101027,0.85656387,0.2619683,-0.2573331,0.50532216,0.42810243,828.8278,828.8278,818.3516,812.71063,969.0476,0.0,0.0,0.155029296875,0.021728515625,0.99114990234375,2.22808837890625,-5.5328369140625,-0.306549072265625,1425567.7655677656,95875677.65567765,52027985.34798535,68.29012,1.0,1.0,1.0,1.0,1.0,20.0,,0 days 00:00:00
2023-11-09 13:45:16.619,0.9764229,-0.09349569,0.46132818,0.7571176,0.745891,-0.013736688,-0.08376515,0.21689825,0.8010454,0.011362633,0.35549888,0.57686144,0.60440695,0.22333832,0.53101027,0.85656387,0.2619683,-0.2573331,0.50532216,0.42810243,811.50183,828.022,816.337,784.10254,853.00366,0.0,0.0,0.155029296875,0.021728515625,0.99114990234375,2.22808837890625,-5.5328369140625,-0.306549072265625,1425567.7655677656,95875677.65567765,52027985.34798535,68.29012,1.0,1.0,1.0,1.0,1.0,20.0,,0 days 00:00:00
2023-11-09 13:45:16.619,0.9764229,-0.09349569,0.46132818,0.7571176,0.745891,-0.013736688,-0.08376515,0.21689825,0.8010454,0.011362633,0.35549888,0.57686144,0.60440695,0.22333832,0.53101027,0.85656387,0.2619683,-0.2573331,0.50532216,0.42810243,802.23444,827.619,822.7839,788.1319,750.65936,0.0,0.0,0.155029296875,0.021728515625,0.99114990234375,2.22808837890625,-5.5328369140625,-0.306549072265625,1425567.7655677656,95875677.65567765,52027985.34798535,68.29012,1.0,1.0,1.0,1.0,1.0,20.0,,0 days 00:00:00
2023-11-09 13:45:16.619,0.9764229,-0.09349569,0.46132818,0.7571176,0.745891,-0.013736688,-0.08376515,0.21689825,0.8010454,0.011362633,0.35549888,0.57686144,0.60440695,0.22333832,0.53101027,0.85656387,0.2619683,-0.2573331,0.50532216,0.42810243,799.41394,818.3516,819.9634,819.5604,826.0073,0.0,0.0,0.155029296875,0.021728515625,0.99114990234375,2.22808837890625,-5.5328369140625,-0.306549072265625,1425567.7655677656,95875677.65567765,52027985.34798535,68.29012,1.0,1.0,1.0,1.0,1.0,20.0,,0 days 00:00:00
2023-11-09 13:45:16.619,0.9764229,-0.09349569,0.46132818,0.7571176,0.745891,-0.013736688,-0.08376515,0.21689825,0.8010454,0.011362633,0.35549888,0.57686144,0.60440695,0.22333832,0.53101027,0.85656387,0.2619683,-0.2573331,0.50532216,0.42810243,791.3553,812.71063,816.337,827.619,851.79486,0.0,0.0,0.155029296875,0.021728515625,0.99114990234375,2.22808837890625,-5.5328369140625,-0.306549072265625,1425567.7655677656,95875677.65567765,52027985.34798535,68.29012,1.0,1.0,1.0,1.0,1.0,20.0,,0 days 00:00:00
2023-11-09 13:45:16.620,0.9764229,-0.09349569,0.46132818,0.7571176,0.745891,-0.013736688,-0.08376515,0.21689825,0.8010454,0.011362633,0.35549888,0.57686144,0.60440695,0.22333832,0.53101027,0.85656387,0.2619683,-0.2573331,0.50532216,0.42810243,791.75824,826.0073,821.5751,795.38464,669.2674,0.0,0.0,0.155029296875,0.021728515625,0.99114990234375,2.22808837890625,-5.5328369140625,-0.306549072265625,1425567.7655677656,95875677.65567765,52027985.34798535,68.29012,1.0,1.0,1.0,1.0,1.0,20.0,,0 days 00:00:00.001000
2023-11-09 13:45:16.651,0.9764229,-0.09349569,0.46132818,0.7571176,0.745891,-0.013736688,-0.08376515,0.21689825,0.8010454,0.011362633,0.35549888,0.57686144,0.60440695,0.22333832,0.53101027,0.85656387,0.2619683,-0.2573331,0.50532216,0.42810243,804.65204,830.4396,819.9634,789.7436,680.14655,0.0,0.0,0.155029296875,0.021728515625,0.99114990234375,2.22808837890625,-5.5328369140625,-0.306549072265625,1425567.7655677656,95875677.65567765,52027985.34798535,68.29012,1.0,1.0,1.0,1.0,1.0,20.0,,0 days 00:00:00.031000
2023-11-09 13:45:16.652,0.9764229,-0.09349569,0.46132818,0.7571176,0.745891,-0.013736688,-0.08376515,0.21689825,0.8010454,0.011362633,0.35549888,0.57686144,0.60440695,0.22333832,0.53101027,0.85656387,0.2619683,-0.2573331,0.50532216,0.42810243,801.8315,828.022,807.0696,786.1172,735.7509,0.0,0.0,0.155029296875,0.021728515625,0.99114990234375,2.22808837890625,-5.5328369140625,-0.306549072265625,1425567.7655677656,95875677.65567765,52027985.34798535,68.29012,1.0,1.0,1.0,1.0,1.0,20.0,,0 days 00:00:00.001000
2023-11-09 13:45:16.652,0.9764229,-0.09349569,0.46132818,0.7571176,0.745891,-0.013736688,-0.08376515,0.21689825,0.8010454,0.011362633,0.35549888,0.57686144,0.60440695,0.22333832,0.53101027,0.85656387,0.2619683,-0.2573331,0.50532216,0.42810243,795.78754,828.8278,813.91943,792.5641,713.5897,0.0,0.0,0.155029296875,0.021728515625,0.99114990234375,2.22808837890625,-5.5328369140625,-0.306549072265625,1425567.7655677656,95875677.65567765,52027985.34798535,68.29012,1.0,1.0,1.0,1.0,1.0,20.0,,0 days 00:00:00
2023-11-09 13:45:16.653,0.9764229,-0.09349569,0.46132818,0.7571176,0.745891,-0.013736688,-0.08376515,0.21689825,0.8010454,0.011362633,0.35549888,0.57686144,0.60440695,0.22333832,0.53101027,0.85656387,0.2619683,-0.2573331,0.50532216,0.42810243,782.0879,828.022,820.7692,797.8022,670.87915,0.0,0.0,0.155029296875,0.021728515625,0.99114990234375,2.22808837890625,-5.5328369140625,-0.306549072265625,1425567.7655677656,95875677.65567765,52027985.34798535,68.29012,1.0,1.0,1.0,1.0,1.0,20.0,,0 days 00:00:00.001000
2023-11-09 13:45:16.653,0.9764229,-0.09349569,0.46132818,0.7571176,0.745891,-0.013736688,-0.08376515,0.21689825,0.8010454,0.011362633,0.35549888,0.57686144,0.60440695,0.22333832,0.53101027,0.85656387,0.2619683,-0.2573331,0.50532216,0.42810243,767.5824,822.7839,815.5311,789.34064,733.73627,0.0,0.0,0.155029296875,0.021728515625,0.99114990234375,2.22808837890625,-5.5328369140625,-0.306549072265625,1425567.7655677656,95875677.65567765,52027985.34798535,68.29012,1.0,1.0,1.0,1.0,1.0,20.0,,0 days 00:00:00
2023-11-09 13:45:16.653,0.9764229,-0.09349569,0.46132818,0.7571176,0.745891,-0.013736688,-0.08376515,0.21689825,0.8010454,0.011362633,0.35549888,0.57686144,0.60440695,0.22333832,0.53101027,0.85656387,0.2619683,-0.2573331,0.50532216,0.42810243,747.8388,819.5604,816.7399,778.86444,832.8571,0.0,0.0,0.155029296875,0.021728515625,0.99114990234375,2.22808837890625,-5.5328369140625,-0.306549072265625,1425567.7655677656,95875677.65567765,52027985.34798535,68.29012,1.0,1.0,1.0,1.0,1.0,20.0,,0 days 00:00:00
2023-11-09 13:45:16.654,0.9764229,-0.09349569,0.46132818,0.7571176,0.745891,-0.013736688,-0.08376515,0.21689825,0.8010454,0.011362633,0.35549888,0.57686144,0.60440695,0.22333832,0.53101027,0.85656387,0.2619683,-0.2573331,0.50532216,0.42810243,750.65936,819.15753,821.1722,790.9524,834.0659,0.0,0.0,0.155029296875,0.021728515625,0.99114990234375,2.22808837890625,-5.5328369140625,-0.306549072265625,1425567.7655677656,95875677.65567765,52027985.34798535,68.29012,1.0,1.0,1.0,1.0,1.0,20.0,,0 days 00:00:00.001000
2023-11-09 13:45:16.654,0.9764229,-0.12106703,0.45925346,0.73461896,0.745891,-0.025597857,-0.06735899,0.2196381,0.8010454,0.011362633,0.45854917,0.579118,0.60440695,0.24482264,0.54273707,0.8449342,0.2619683,-0.25774506,0.49990728,0.4334832,752.27106,823.9927,813.5165,811.9048,812.3077,0.0,0.0,0.155029296875,0.021728515625,0.99114990234375,2.22808837890625,-5.5328369140625,-0.306549072265625,1425567.7655677656,95875677.65567765,52027985.34798535,68.29012,1.0,1.0,1.0,1.0,1.0,20.0,,0 days 00:00:00
