TimeStamp,Delta_TP9,Delta_AF7,Delta_AF8,Delta_TP10,Theta_TP9,Theta_AF7,Theta_AF8,Theta_TP10,Alpha_TP9,Alpha_AF7,Alpha_AF8,Alpha_TP10,Beta_TP9,Beta_AF7,Beta_AF8,Beta_TP10,Gamma_TP9,Gamma_AF7,Gamma_AF8,Gamma_TP10,RAW_TP9,RAW_AF7,RAW_AF8,RAW_TP10,AUX_RIGHT,Mellow,Concentration,Accelerometer_X,Accelerometer_Y,Accelerometer_Z,Gyro_X,Gyro_Y,Gyro_Z,PPG_Ambient,PPG_IR,PPG_Red,Heart_Rate,HeadBandOn,HSI_TP9,HSI_AF7,HSI_AF8,HSI_TP10,Battery,Elements,TimeDifference
2023-11-16 11:33:06.613,0.63593304,0.0,0.48284686,1.1302099,0.3963937,0.0,-0.15666986,0.6982024,0.79985464,0.0,0.46704772,0.7951329,0.98119617,0.0,0.57647294,0.7845355,0.8692751,0.0,0.23080923,0.55986184,789.34064,32.234432,801.8315,793.36993,776.04395,0.0,0.0,0.37310791015625,0.1685791015625,0.91326904296875,2.40753173828125,-4.53094482421875,-2.086029052734375,18302710.622710623,121509304.02930404,72014139.1941392,82.02831,1.0,1.0,2.0,1.0,1.0,50.0,,0 days 00:00:00.031000
2023-11-16 11:33:06.614,0.63593304,0.0,0.48284686,1.1302099,0.3963937,0.0,-0.15666986,0.6982024,0.79985464,0.0,0.46704772,0.7951329,0.98119617,0.0,0.57647294,0.7845355,0.8692751,0.0,0.23080923,0.55986184,797.8022,305.8242,811.9048,782.49084,766.3736,0.0,0.0,0.37310791015625,0.1685791015625,0.91326904296875,2.40753173828125,-4.53094482421875,-2.086029052734375,18302710.622710623,121509304.02930404,72014139.1941392,82.02831,1.0,1.0,2.0,1.0,1.0,50.0,,0 days 00:00:00.001000
2023-11-16 11:33:06.615,0.63593304,0.0,0.48284686,1.1302099,0.3963937,0.0,-0.15666986,0.6982024,0.79985464,0.0,0.46704772,0.7951329,0.98119617,0.0,0.57647294,0.7845355,0.8692751,0.0,0.23080923,0.55986184,792.5641,341.68497,805.05493,783.2967,776.04395,0.0,0.0,0.37310791015625,0.1685791015625,0.91326904296875,2.40753173828125,-4.53094482421875,-2.086029052734375,18302710.622710623,121509304.02930404,72014139.1941392,82.02831,1.0,1.0,2.0,1.0,1.0,50.0,,0 days 00:00:00.001000
2023-11-16 11:33:06.615,0.63593304,0.0,0.48284686,1.1302099,0.3963937,0.0,-0.15666986,0.6982024,0.79985464,0.0,0.46704772,0.7951329,0.98119617,0.0,0.57647294,0.7845355,0.8692751,0.0,0.23080923,0.55986184,807.47253,93.07692,791.3553,799.011,867.9121,0.0,0.0,0.37310791015625,0.1685791015625,0.91326904296875,2.40753173828125,-4.53094482421875,-2.086029052734375,18302710.622710623,121509304.02930404,72014139.1941392,82.02831,1.0,1.0,2.0,1.0,1.0,50.0,,0 days 00:00:00
2023-11-16 11:33:06.616,0.63593304,0.0,0.48284686,1.1302099,0.3963937,0.0,-0.15666986,0.6982024,0.79985464,0.0,0.46704772,0.7951329,0.98119617,0.0,0.57647294,0.7845355,0.8692751,0.0,0.23080923,0.55986184,805.05493,118.86447,800.6227,798.60803,851.79486,0.0,0.0,0.37310791015625,0.1685791015625,0.91326904296875,2.40753173828125,-4.53094482421875,-2.086029052734375,18302710.622710623,121509304.02930404,72014139.1941392,82.02831,1.0,1.0,2.0,1.0,1.0,50.0,,0 days 00:00:00.001000
2023-11-16 11:33:06.616,0.63593304,0.0,0.48284686,1.1302099,0.3963937,0.0,-0.15666986,0.6982024,0.79985464,0.0,0.46704772,0.7951329,0.98119617,0.0,0.57647294,0.7845355,0.8692751,0.0,0.23080923,0.55986184,798.60803,89.45055,801.8315,794.57874,781.685,0.0,0.0,0.37310791015625,0.1685791015625,0.91326904296875,2.40753173828125,-4.53094482421875,-2.086029052734375,18302710.622710623,121509304.02930404,72014139.1941392,82.02831,1.0,1.0,2.0,1.0,1.0,50.0,,0 days 00:00:00
2023-11-16 11:33:06.617,0.63593304,0.0,0.48284686,1.1302099,0.3963937,0.0,-0.15666986,0.6982024,0.79985464,0.0,0.46704772,0.7951329,0.98119617,0.0,0.57647294,0.7845355,0.8692751,0.0,0.23080923,0.55986184,819.5604,0.0,796.5934,793.7729,744.21246,0.0,0.0,0.37310791015625,0.1685791015625,0.91326904296875,2.40753173828125,-4.53094482421875,-2.086029052734375,18302710.622710623,121509304.02930404,72014139.1941392,82.02831,1.0,1.0,2.0,1.0,1.0,50.0,,0 days 00:00:00.001000
2023-11-16 11:33:06.617,0.63593304,0.0,0.5337907,1.1302099,0.3963937,0.0,-0.14664376,0.6982024,0.79985464,0.0,0.46704772,0.7951329,0.98119617,0.0,0.562367,0.7845355,0.8692751,0.0,0.2104404,0.55986184,837.6923,10.07326,788.5348,819.5604,922.71063,0.0,0.0,0.37310791015625,0.1685791015625,0.91326904296875,2.40753173828125,-4.53094482421875,-2.086029052734375,18302710.622710623,121509304.02930404,72014139.1941392,82.02831,1.0,1.0,2.0,1.0,1.0,50.0,,0 days 00:00:00
2023-11-16 11:33:06.620,0.63593304,0.0,0.5337907,1.1302099,0.3963937,0.0,-0.14664376,0.6982024,0.79985464,0.0,0.46704772,0.7951329,0.98119617,0.0,0.562367,0.7845355,0.8692751,0.0,0.2104404,0.55986184,822.381,0.0,782.0879,838.0952,1110.0732,0.0,0.0,0.37310791015625,0.1685791015625,0.91326904296875,2.40753173828125,-4.53094482421875,-2.086029052734375,18302710.622710623,121509304.02930404,72014139.1941392,82.02831,1.0,1.0,2.0,1.0,1.0,50.0,,0 days 00:00:00.003000
2023-11-16 11:33:06.621,0.63593304,0.0,0.5337907,1.1302099,0.3963937,0.0,-0.14664376,0.6982024,0.79985464,0.0,0.46704772,0.7951329,0.98119617,0.0,0.562367,0.7845355,0.8692751,0.0,0.2104404,0.55986184,784.90845,276.8132,813.5165,797.8022,855.0183,0.0,0.0,0.37310791015625,0.1685791015625,0.91326904296875,2.40753173828125,-4.53094482421875,-2.086029052734375,18302710.622710623,121509304.02930404,72014139.1941392,82.02831,1.0,1.0,2.0,1.0,1.0,50.0,,0 days 00:00:00.001000
2023-11-16 11:33:06.621,0.63593304,0.0,0.5337907,1.1302099,0.3963937,0.0,-0.14664376,0.6982024,0.79985464,0.0,0.46704772,0.7951329,0.98119617,0.0,0.562367,0.7845355,0.8692751,0.0,0.2104404,0.55986184,781.685,434.35898,816.7399,792.96704,775.64105,0.0,0.0,0.37310791015625,0.1685791015625,0.91326904296875,2.40753173828125,-4.53094482421875,-2.086029052734375,18302710.622710623,121509304.02930404,72014139.1941392,82.02831,1.0,1.0,2.0,1.0,1.0,50.0,,0 days 00:00:00
2023-11-16 11:33:06.622,0.63593304,0.0,0.5337907,1.1302099,0.3963937,0.0,-0.14664376,0.6982024,0.79985464,0.0,0.46704772,0.7951329,0.98119617,0.0,0.562367,0.7845355,0.8692751,0.0,0.2104404,0.55986184,803.44324,251.8315,803.8461,799.81683,811.9048,0.0,0.0,0.37310791015625,0.1685791015625,0.91326904296875,2.40753173828125,-4.53094482421875,-2.086029052734375,18302710.622710623,121509304.02930404,72014139.1941392,82.02831,1.0,1.0,2.0,1.0,1.0,50.0,,0 days 00:00:00.001000
2023-11-16 11:33:06.649,0.63593304,0.0,0.5337907,1.1302099,0.3963937,0.0,-0.14664376,0.6982024,0.79985464,0.0,0.46704772,0.7951329,0.98119617,0.0,0.562367,0.7845355,0.8692751,0.0,0.2104404,0.55986184,806.6667,413.4066,809.89014,792.1612,769.59705,0.0,0.0,0.37310791015625,0.1685791015625,0.91326904296875,2.40753173828125,-4.53094482421875,-2.086029052734375,18302710.622710623,121509304.02930404,72014139.1941392,82.02831,1.0,1.0,2.0,1.0,1.0,50.0,,0 days 00:00:00.027000
2023-11-16 11:33:06.649,0.63593304,0.0,0.5337907,1.1302099,0.3963937,0.0,-0.14664376,0.6982024,0.79985464,0.0,0.46704772,0.7951329,0.98119617,0.0,0.562367,0.7845355,0.8692751,0.0,0.2104404,0.55986184,792.5641,538.315,811.9048,796.5934,753.0769,0.0,0.0,0.37310791015625,0.1685791015625,0.91326904296875,2.40753173828125,-4.53094482421875,-2.086029052734375,18302710.622710623,121509304.02930404,72014139.1941392,82.02831,1.0,1.0,2.0,1.0,1.0,50.0,,0 days 00:00:00
2023-11-16 11:33:06.650,0.63593304,0.0,0.5337907,1.1302099,0.3963937,0.0,-0.14664376,0.6982024,0.79985464,0.0,0.46704772,0.7951329,0.98119617,0.0,0.562367,0.7845355,0.8692751,0.0,0.2104404,0.55986184,812.71063,289.30402,797.8022,801.02563,778.0586,0.0,0.0,0.37310791015625,0.1685791015625,0.91326904296875,2.40753173828125,-4.53094482421875,-2.086029052734375,18302710.622710623,121509304.02930404,72014139.1941392,82.02831,1.0,1.0,2.0,1.0,1.0,50.0,,0 days 00:00:00.001000
2023-11-16 11:33:06.650,0.63593304,0.0,0.5337907,1.1302099,0.3963937,0.0,-0.14664376,0.6982024,0.79985464,0.0,0.46704772,0.7951329,0.98119617,0.0,0.562367,0.7845355,0.8692751,0.0,0.2104404,0.55986184,832.0513,139.81685,796.5934,805.4579,895.7143,0.0,0.0,0.37310791015625,0.1685791015625,0.91326904296875,2.40753173828125,-4.53094482421875,-2.086029052734375,18302710.622710623,121509304.02930404,72014139.1941392,82.02831,1.0,1.0,2.0,1.0,1.0,50.0,,0 days 00:00:00
2023-11-16 11:33:06.650,0.63593304,0.0,0.5337907,1.1302099,0.3963937,0.0,-0.14664376,0.6982024,0.79985464,0.0,0.46704772,0.7951329,0.98119617,0.0,0.562367,0.7845355,0.8692751,0.0,0.2104404,0.55986184,828.8278,365.05493,803.0403,800.6227,852.6007,0.0,0.0,0.37310791015625,0.1685791015625,0.91326904296875,2.40753173828125,-4.53094482421875,-2.086029052734375,18302710.622710623,121509304.02930404,72014139.1941392,82.02831,1.0,1.0,2.0,1.0,1.0,50.0,,0 days 00:00:00
2023-11-16 11:33:06.650,0.63593304,0.0,0.5337907,1.1302099,0.3963937,0.0,-0.14664376,0.6982024,0.79985464,0.0,0.46704772,0.7951329,0.98119617,0.0,0.562367,0.7845355,0.8692751,0.0,0.2104404,0.55986184,811.9048,219.59708,796.1905,793.36993,865.09155,0.0,0.0,0.37310791015625,0.1685791015625,0.91326904296875,2.40753173828125,-4.53094482421875,-2.086029052734375,18302710.622710623,121509304.02930404,72014139.1941392,82.02831,1.0,1.0,2.0,1.0,1.0,50.0,,0 days 00:00:00
2023-11-16 11:33:06.651,0.63593304,0.0,0.5337907,1.1302099,0.3963937,0.0,-0.14664376,0.6982024,0.79985464,0.0,0.46704772,0.7951329,0.98119617,0.0,0.562367,0.7845355,0.8692751,0.0,0.2104404,0.55986184,788.5348,28.608059,794.57874,800.2198,948.49817,0.0,0.0,0.37310791015625,0.1685791015625,0.91326904296875,2.40753173828125,-4.53094482421875,-2.086029052734375,18302710.622710623,121509304.02930404,72014139.1941392,82.02831,1.0,1.0,2.0,1.0,1.0,50.0,,0 days 00:00:00.001000
2023-11-16 11:33:06.651,0.63593304,0.0,0.5337907,1.1302099,0.3963937,0.0,-0.14664376,0.6982024,0.79985464,0.0,0.46704772,0.7951329,0.98119617,0.0,0.562367,0.7845355,0.8692751,0.0,0.2104404,0.55986184,799.81683,0.4029304,785.7143,822.7839,1113.2968,0.0,0.0,0.37310791015625,0.1685791015625,0.91326904296875,2.40753173828125,-4.53094482421875,-2.086029052734375,18302710.622710623,121509304.02930404,72014139.1941392,82.02831,1.0,1.0,2.0,1.0,1.0,50.0,,0 days 00:00:00
2023-11-16 11:33:06.651,0.63593304,0.0,0.5337907,1.1302099,0.3963937,0.0,-0.14664376,0.6982024,0.79985464,0.0,0.46704772,0.7951329,0.98119617,0.0,0.562367,0.7845355,0.8692751,0.0,0.2104404,0.55986184,784.5055,186.55678,807.47253,783.69965,958.97437,0.0,0.0,0.37310791015625,0.1685791015625,0.91326904296875,2.40753173828125,-4.53094482421875,-2.086029052734375,18302710.622710623,121509304.02930404,72014139.1941392,82.02831,1.0,1.0,2.0,1.0,1.0,50.0,,0 days 00:00:00
2023-11-16 11:33:06.651,0.63593304,0.0,0.5337907,1.1302099,0.3963937,0.0,-0.14664376,0.6982024,0.79985464,0.0,0.46704772,0.7951329,0.98119617,0.0,0.562367,0.7845355,0.8692751,0.0,0.2104404,0.55986184,782.0879,377.94873,814.3223,766.77655,689.41394,0.0,0.0,0.37310791015625,0.1685791015625,0.91326904296875,2.40753173828125,-4.53094482421875,-2.086029052734375,18302710.622710623,121509304.02930404,72014139.1941392,82.02831,1.0,1.0,2.0,1.0,1.0,50.0,,0 days 00:00:00
2023-11-16 11:33:06.651,0.63593304,0.0,0.5337907,1.1302099,0.3963937,0.0,-0.14664376,0.6982024,0.79985464,0.0,0.46704772,0.7951329,0.98119617,0.0,0.562367,0.7845355,0.8692751,0.0,0.2104404,0.55986184,800.6227,237.72894,799.41394,796.5934,718.022,0.0,0.0,0.37310791015625,0.1685791015625,0.91326904296875,2.40753173828125,-4.53094482421875,-2.086029052734375,18302710.622710623,121509304.02930404,72014139.1941392,82.02831,1.0,1.0,2.0,1.0,1.0,50.0,,0 days 00:00:00
2023-11-16 11:33:06.652,0.63593304,0.0,0.5337907,1.1302099,0.3963937,0.0,-0.14664376,0.6982024,0.79985464,0.0,0.46704772,0.7951329,0.98119617,0.0,0.562367,0.7845355,0.8692751,0.0,0.2104404,0.55986184,799.81683,201.06227,803.8461,786.1172,707.5458,0.0,0.0,0.37310791015625,0.1685791015625,0.91326904296875,2.40753173828125,-4.53094482421875,-2.086029052734375,18302710.622710623,121509304.02930404,72014139.1941392,82.02831,1.0,1.0,2.0,1.0,1.0,50.0,,0 days 00:00:00.001000
2023-11-16 11:33:06.702,0.63593304,0.0,0.5337907,1.1302099,0.3963937,0.0,-0.14664376,0.6982024,0.79985464,0.0,0.46704772,0.7951329,0.98119617,0.0,0.562367,0.7845355,0.8692751,0.0,0.2104404,0.55986184,815.5311,228.46153,810.293,787.72894,696.6667,0.0,0.0,0.36639404296875,0.162109375,0.90753173828125,2.624359130859375,-3.701019287109375,-2.803802490234375,18322857.14285714,121573772.89377289,72039120.87912087,82.02831,1.0,1.0,2.0,1.0,1.0,50.0,,0 days 00:00:00.050000
2023-11-16 11:33:06.703,0.63593304,0.0,0.5337907,1.1302099,0.3963937,0.0,-0.14664376,0.6982024,0.79985464,0.0,0.46704772,0.7951329,0.98119617,0.0,0.562367,0.7845355,0.8692751,0.0,0.2104404,0.55986184,809.0842,318.31503,809.0842,792.96704,686.1905,0.0,0.0,0.36639404296875,0.162109375,0.90753173828125,2.624359130859375,-3.701019287109375,-2.803802490234375,18322857.14285714,121573772.89377289,72039120.87912087,82.02831,1.0,1.0,2.0,1.0,1.0,50.0,,0 days 00:00:00.001000
2023-11-16 11:33:06.703,0.63593304,0.0,0.5337907,1.1302099,0.3963937,0.0,-0.14664376,0.6982024,0.79985464,0.0,0.46704772,0.7951329,0.98119617,0.0,0.562367,0.7845355,0.8692751,0.0,0.2104404,0.55986184,796.5934,137.39926,802.23444,790.9524,723.2601,0.0,0.0,0.36639404296875,0.162109375,0.90753173828125,2.624359130859375,-3.701019287109375,-2.803802490234375,18322857.14285714,121573772.89377289,72039120.87912087,82.02831,1.0,1.0,2.0,1.0,1.0,50.0,,0 days 00:00:00
2023-11-16 11:33:06.703,0.63593304,0.0,0.5337907,1.1302099,0.3963937,0.0,-0.14664376,0.6982024,0.79985464,0.0,0.46704772,0.7951329,0.98119617,0.0,0.562367,0.7845355,0.8692751,0.0,0.2104404,0.55986184,797.3993,201.4652,809.4872,794.57874,730.10986,0.0,0.0,0.36639404296875,0.162109375,0.90753173828125,2.624359130859375,-3.701019287109375,-2.803802490234375,18322857.14285714,121573772.89377289,72039120.87912087,82.02831,1.0,1.0,2.0,1.0,1.0,50.0,,0 days 00:00:00
2023-11-16 11:33:06.704,0.63593304,0.0,0.5337907,1.1302099,0.3963937,0.0,-0.14664376,0.6982024,0.79985464,0.0,0.46704772,0.7951329,0.98119617,0.0,0.562367,0.7845355,0.8692751,0.0,0.2104404,0.55986184,794.17584,341.68497,811.0989,781.28204,684.9817,0.0,0.0,0.36639404296875,0.162109375,0.90753173828125,2.624359130859375,-3.701019287109375,-2.803802490234375,18322857.14285714,121573772.89377289,72039120.87912087,82.02831,1.0,1.0,2.0,1.0,1.0,50.0,,0 days 00:00:00.001000
2023-11-16 11:33:06.704,0.63593304,0.0,0.5337907,1.1302099,0.3963937,0.0,-0.14664376,0.6982024,0.79985464,0.0,0.46704772,0.7951329,0.98119617,0.0,0.562367,0.7845355,0.8692751,0.0,0.2104404,0.55986184,799.81683,64.871796,803.44324,778.0586,746.63007,0.0,0.0,0.36639404296875,0.162109375,0.90753173828125,2.624359130859375,-3.701019287109375,-2.803802490234375,18322857.14285714,121573772.89377289,72039120.87912087,82.02831,1.0,1.0,2.0,1.0,1.0,50.0,,0 days 00:00:00
2023-11-16 11:33:06.704,0.63593304,0.0,0.5337907,1.1302099,0.3963937,0.0,-0.14664376,0.6982024,0.79985464,0.0,0.46704772,0.7951329,0.98119617,0.0,0.562367,0.7845355,0.8692751,0.0,0.2104404,0.55986184,817.5458,0.0,790.9524,807.0696,923.1135,0.0,0.0,0.36639404296875,0.162109375,0.90753173828125,2.624359130859375,-3.701019287109375,-2.803802490234375,18322857.14285714,121573772.89377289,72039120.87912087,82.02831,1.0,1.0,2.0,1.0,1.0,50.0,,0 days 00:00:00
2023-11-16 11:33:06.705,0.63593304,0.0,0.5337907,1.1302099,0.3963937,0.0,-0.14664376,0.6982024,0.79985464,0.0,0.46704772,0.7951329,0.98119617,0.0,0.562367,0.7845355,0.8692751,0.0,0.2104404,0.55986184,822.7839,27.399267,796.5934,804.65204,974.2857,0.0,0.0,0.36639404296875,0.162109375,0.90753173828125,2.624359130859375,-3.701019287109375,-2.803802490234375,18322857.14285714,121573772.89377289,72039120.87912087,82.02831,1.0,1.0,2.0,1.0,1.0,50.0,,0 days 00:00:00.001000
2023-11-16 11:33:06.705,0.63593304,0.0,0.5337907,1.1302099,0.3963937,0.0,-0.14664376,0.6982024,0.79985464,0.0,0.46704772,0.7951329,0.98119617,0.0,0.562367,0.7845355,0.8692751,0.0,0.2104404,0.55986184,803.8461,66.48351,814.3223,785.7143,833.663,0.0,0.0,0.36639404296875,0.162109375,0.90753173828125,2.624359130859375,-3.701019287109375,-2.803802490234375,18322857.14285714,121573772.89377289,72039120.87912087,82.02831,1.0,1.0,2.0,1.0,1.0,50.0,,0 days 00:00:00
2023-11-16 11:33:06.705,0.63593304,0.0,0.5857672,1.2266247,0.3963937,0.0,-0.122116245,0.7294807,0.79985464,0.0,0.46704772,0.95504975,0.98119617,0.0,0.5517493,0.81466806,0.8692751,0.0,0.17877264,0.529864,792.96704,115.2381,807.8755,789.34064,781.685,0.0,0.0,0.36639404296875,0.162109375,0.90753173828125,2.624359130859375,-3.701019287109375,-2.803802490234375,18322857.14285714,121573772.89377289,72039120.87912087,82.02831,1.0,1.0,2.0,1.0,1.0,50.0,,0 days 00:00:00
2023-11-16 11:33:06.707,0.63593304,0.0,0.5857672,1.2266247,0.3963937,0.0,-0.122116245,0.7294807,0.79985464,0.0,0.46704772,0.95504975,0.98119617,0.0,0.5517493,0.81466806,0.8692751,0.0,0.17877264,0.529864,796.99634,21.35531,788.93774,801.02563,921.9048,0.0,0.0,0.36639404296875,0.162109375,0.90753173828125,2.624359130859375,-3.701019287109375,-2.803802490234375,18322857.14285714,121573772.89377289,72039120.87912087,82.02831,1.0,1.0,2.0,1.0,1.0,50.0,,0 days 00:00:00.002000
2023-11-16 11:33:06.708,0.63593304,0.0,0.5857672,1.2266247,0.3963937,0.0,-0.122116245,0.7294807,0.79985464,0.0,0.46704772,0.95504975,0.98119617,0.0,0.5517493,0.81466806,0.8692751,0.0,0.17877264,0.529864,802.23444,157.94872,797.8022,800.6227,887.25275,0.0,0.0,0.36639404296875,0.162109375,0.90753173828125,2.624359130859375,-3.701019287109375,-2.803802490234375,18322857.14285714,121573772.89377289,72039120.87912087,82.02831,1.0,1.0,2.0,1.0,1.0,50.0,,0 days 00:00:00.001000
2023-11-16 11:33:06.802,0.63593304,0.0,0.5857672,1.2266247,0.3963937,0.0,-0.122116245,0.7294807,0.79985464,0.0,0.46704772,0.95504975,0.98119617,0.0,0.5517493,0.81466806,0.8692751,0.0,0.17877264,0.529864,815.5311,481.0989,813.91943,795.38464,721.6484,0.0,0.0,0.3729248046875,0.15728759765625,0.92333984375,0.740203857421875,-5.42816162109375,-2.953338623046875,18322857.14285714,121573772.89377289,72039120.87912087,82.02831,1.0,1.0,2.0,1.0,1.0,50.0,,0 days 00:00:00.094000
2023-11-16 11:33:06.803,0.63593304,0.0,0.5857672,1.2266247,0.3963937,0.0,-0.122116245,0.7294807,0.79985464,0.0,0.46704772,0.95504975,0.98119617,0.0,0.5517493,0.81466806,0.8692751,0.0,0.17877264,0.529864,797.3993,445.64102,817.9487,791.3553,813.5165,0.0,0.0,0.3729248046875,0.15728759765625,0.92333984375,0.740203857421875,-5.42816162109375,-2.953338623046875,18322857.14285714,121573772.89377289,72039120.87912087,82.02831,1.0,1.0,2.0,1.0,1.0,50.0,,0 days 00:00:00.001000
2023-11-16 11:33:06.804,0.63593304,0.0,0.5857672,1.2266247,0.3963937,0.0,-0.122116245,0.7294807,0.79985464,0.0,0.46704772,0.95504975,0.98119617,0.0,0.5517493,0.81466806,0.8692751,0.0,0.17877264,0.529864,770.80585,262.71063,810.293,772.8205,853.8095,0.0,0.0,0.3729248046875,0.15728759765625,0.92333984375,0.740203857421875,-5.42816162109375,-2.953338623046875,18322857.14285714,121573772.89377289,72039120.87912087,82.02831,1.0,1.0,2.0,1.0,1.0,50.0,,0 days 00:00:00.001000
2023-11-16 11:33:06.804,0.63593304,0.0,0.5857672,1.2266247,0.3963937,0.0,-0.122116245,0.7294807,0.79985464,0.0,0.46704772,0.95504975,0.98119617,0.0,0.5517493,0.81466806,0.8692751,0.0,0.17877264,0.529864,786.9231,374.32236,803.0403,772.8205,784.90845,0.0,0.0,0.3729248046875,0.15728759765625,0.92333984375,0.740203857421875,-5.42816162109375,-2.953338623046875,18322857.14285714,121573772.89377289,72039120.87912087,82.02831,1.0,1.0,2.0,1.0,1.0,50.0,,0 days 00:00:00
2023-11-16 11:33:06.805,0.63593304,0.0,0.5857672,1.2266247,0.3963937,0.0,-0.122116245,0.7294807,0.79985464,0.0,0.46704772,0.95504975,0.98119617,0.0,0.5517493,0.81466806,0.8692751,0.0,0.17877264,0.529864,799.81683,419.45056,809.4872,782.49084,728.49817,0.0,0.0,0.3729248046875,0.15728759765625,0.92333984375,0.740203857421875,-5.42816162109375,-2.953338623046875,18322857.14285714,121573772.89377289,72039120.87912087,82.02831,1.0,1.0,2.0,1.0,1.0,50.0,,0 days 00:00:00.001000
2023-11-16 11:33:06.805,0.63593304,0.0,0.5857672,1.2266247,0.3963937,0.0,-0.122116245,0.7294807,0.79985464,0.0,0.46704772,0.95504975,0.98119617,0.0,0.5517493,0.81466806,0.8692751,0.0,0.17877264,0.529864,796.99634,159.56044,804.65204,794.9817,882.4176,0.0,0.0,0.3729248046875,0.15728759765625,0.92333984375,0.740203857421875,-5.42816162109375,-2.953338623046875,18322857.14285714,121573772.89377289,72039120.87912087,82.02831,1.0,1.0,2.0,1.0,1.0,50.0,,0 days 00:00:00
2023-11-16 11:33:06.806,0.63593304,0.0,0.5857672,1.2266247,0.3963937,0.0,-0.122116245,0.7294807,0.79985464,0.0,0.46704772,0.95504975,0.98119617,0.0,0.5517493,0.81466806,0.8692751,0.0,0.17877264,0.529864,802.23444,16.117216,791.75824,803.0403,1048.8279,0.0,0.0,0.3729248046875,0.15728759765625,0.92333984375,0.740203857421875,-5.42816162109375,-2.953338623046875,18322857.14285714,121573772.89377289,72039120.87912087,82.02831,1.0,1.0,2.0,1.0,1.0,50.0,,0 days 00:00:00.001000
2023-11-16 11:33:06.806,0.63593304,0.0,0.5857672,1.2266247,0.3963937,0.0,-0.122116245,0.7294807,0.79985464,0.0,0.46704772,0.95504975,0.98119617,0.0,0.5517493,0.81466806,0.8692751,0.0,0.17877264,0.529864,799.41394,257.87546,802.6374,778.46155,807.47253,0.0,0.0,0.3729248046875,0.15728759765625,0.92333984375,0.740203857421875,-5.42816162109375,-2.953338623046875,18322857.14285714,121573772.89377289,72039120.87912087,82.02831,1.0,1.0,2.0,1.0,1.0,50.0,,0 days 00:00:00
2023-11-16 11:33:06.807,0.63593304,0.0,0.5857672,1.2266247,0.3963937,0.0,-0.122116245,0.7294807,0.79985464,0.0,0.46704772,0.95504975,0.98119617,0.0,0.5517493,0.81466806,0.8692751,0.0,0.17877264,0.529864,790.9524,379.96338,811.50183,776.8498,691.4286,0.0,0.0,0.3729248046875,0.15728759765625,0.92333984375,0.740203857421875,-5.42816162109375,-2.953338623046875,18322857.14285714,121573772.89377289,72039120.87912087,82.02831,1.0,1.0,2.0,1.0,1.0,50.0,,0 days 00:00:00.001000
2023-11-16 11:33:06.807,0.63593304,0.0,0.5857672,1.2266247,0.3963937,0.0,-0.122116245,0.7294807,0.79985464,0.0,0.46704772,0.95504975,0.98119617,0.0,0.5517493,0.81466806,0.8692751,0.0,0.17877264,0.529864,780.87915,138.20512,796.5934,796.1905,881.6117,0.0,0.0,0.3729248046875,0.15728759765625,0.92333984375,0.740203857421875,-5.42816162109375,-2.953338623046875,18322857.14285714,121573772.89377289,72039120.87912087,82.02831,1.0,1.0,2.0,1.0,1.0,50.0,,0 days 00:00:00
2023-11-16 11:33:06.807,0.63593304,0.0,0.5857672,1.2266247,0.3963937,0.0,-0.122116245,0.7294807,0.79985464,0.0,0.46704772,0.95504975,0.98119617,0.0,0.5517493,0.81466806,0.8692751,0.0,0.17877264,0.529864,792.96704,42.307693,788.1319,796.99634,958.1685,0.0,0.0,0.3729248046875,0.15728759765625,0.92333984375,0.740203857421875,-5.42816162109375,-2.953338623046875,18322857.14285714,121573772.89377289,72039120.87912087,82.02831,1.0,1.0,2.0,1.0,1.0,50.0,,0 days 00:00:00
2023-11-16 11:33:06.808,0.63593304,0.0,0.5857672,1.2266247,0.3963937,0.0,-0.122116245,0.7294807,0.79985464,0.0,0.46704772,0.95504975,0.98119617,0.0,0.5517493,0.81466806,0.8692751,0.0,0.17877264,0.529864,798.60803,322.74725,801.02563,772.01465,755.09155,0.0,0.0,0.3729248046875,0.15728759765625,0.92333984375,0.740203857421875,-5.42816162109375,-2.953338623046875,18322857.14285714,121573772.89377289,72039120.87912087,82.02831,1.0,1.0,2.0,1.0,1.0,50.0,,0 days 00:00:00.001000
2023-11-16 11:33:06.832,0.63593304,0.0,0.5857672,1.2266247,0.3963937,0.0,-0.122116245,0.7294807,0.79985464,0.0,0.46704772,0.95504975,0.98119617,0.0,0.5517493,0.81466806,0.8692751,0.0,0.17877264,0.529864,785.7143,398.9011,799.41394,770.40295,695.8608,0.0,0.0,0.37615966796875,0.1502685546875,0.9090576171875,0.777587890625,-5.18890380859375,-1.51031494140625,18296263.736263737,121612454.2124542,72082637.36263736,82.35535,1.0,1.0,2.0,1.0,1.0,50.0,,0 days 00:00:00.024000
2023-11-16 11:33:06.833,0.63593304,0.0,0.5857672,1.2266247,0.3963937,0.0,-0.122116245,0.7294807,0.79985464,0.0,0.46704772,0.95504975,0.98119617,0.0,0.5517493,0.81466806,0.8692751,0.0,0.17877264,0.529864,776.4469,141.42857,792.5641,781.28204,785.31134,0.0,0.0,0.37615966796875,0.1502685546875,0.9090576171875,0.777587890625,-5.18890380859375,-1.51031494140625,18296263.736263737,121612454.2124542,72082637.36263736,82.35535,1.0,1.0,2.0,1.0,1.0,50.0,,0 days 00:00:00.001000
2023-11-16 11:33:06.833,0.63593304,0.0,0.5857672,1.2266247,0.3963937,0.0,-0.122116245,0.7294807,0.79985464,0.0,0.46704772,0.95504975,0.98119617,0.0,0.5517493,0.81466806,0.8692751,0.0,0.17877264,0.529864,783.69965,202.27106,798.20514,780.07324,764.35895,0.0,0.0,0.37615966796875,0.1502685546875,0.9090576171875,0.777587890625,-5.18890380859375,-1.51031494140625,18296263.736263737,121612454.2124542,72082637.36263736,82.35535,1.0,1.0,2.0,1.0,1.0,50.0,,0 days 00:00:00
2023-11-16 11:33:06.833,0.63593304,0.0,0.5857672,1.2266247,0.3963937,0.0,-0.122116245,0.7294807,0.79985464,0.0,0.46704772,0.95504975,0.98119617,0.0,0.5517493,0.81466806,0.8692751,0.0,0.17877264,0.529864,787.72894,408.97437,800.2198,775.2381,739.7802,0.0,0.0,0.37615966796875,0.1502685546875,0.9090576171875,0.777587890625,-5.18890380859375,-1.51031494140625,18296263.736263737,121612454.2124542,72082637.36263736,82.35535,1.0,1.0,2.0,1.0,1.0,50.0,,0 days 00:00:00
2023-11-16 11:33:06.833,0.63593304,0.0,0.5857672,1.2266247,0.3963937,0.0,-0.122116245,0.7294807,0.79985464,0.0,0.46704772,0.95504975,0.98119617,0.0,0.5517493,0.81466806,0.8692751,0.0,0.17877264,0.529864,787.72894,325.9707,796.1905,778.0586,705.9341,0.0,0.0,0.37615966796875,0.1502685546875,0.9090576171875,0.777587890625,-5.18890380859375,-1.51031494140625,18296263.736263737,121612454.2124542,72082637.36263736,82.35535,1.0,1.0,2.0,1.0,1.0,50.0,,0 days 00:00:00
2023-11-16 11:33:06.834,0.63593304,0.0,0.5857672,1.2266247,0.3963937,0.0,-0.122116245,0.7294807,0.79985464,0.0,0.46704772,0.95504975,0.98119617,0.0,0.5517493,0.81466806,0.8692751,0.0,0.17877264,0.529864,800.2198,65.27473,792.96704,796.1905,802.6374,0.0,0.0,0.37615966796875,0.1502685546875,0.9090576171875,0.777587890625,-5.18890380859375,-1.51031494140625,18296263.736263737,121612454.2124542,72082637.36263736,82.35535,1.0,1.0,2.0,1.0,1.0,50.0,,0 days 00:00:00.001000
2023-11-16 11:33:06.834,0.63593304,0.0,0.5857672,1.2266247,0.3963937,0.0,-0.122116245,0.7294807,0.79985464,0.0,0.46704772,0.95504975,0.98119617,0.0,0.5517493,0.81466806,0.8692751,0.0,0.17877264,0.529864,802.6374,0.0,793.7729,794.17584,866.7033,0.0,0.0,0.37615966796875,0.1502685546875,0.9090576171875,0.777587890625,-5.18890380859375,-1.51031494140625,18296263.736263737,121612454.2124542,72082637.36263736,82.35535,1.0,1.0,2.0,1.0,1.0,50.0,,0 days 00:00:00
2023-11-16 11:33:06.834,0.63593304,0.0,0.5857672,1.2266247,0.3963937,0.0,-0.122116245,0.7294807,0.79985464,0.0,0.46704772,0.95504975,0.98119617,0.0,0.5517493,0.81466806,0.8692751,0.0,0.17877264,0.529864,793.36993,54.798534,798.20514,778.0586,752.27106,0.0,0.0,0.37615966796875,0.1502685546875,0.9090576171875,0.777587890625,-5.18890380859375,-1.51031494140625,18296263.736263737,121612454.2124542,72082637.36263736,82.35535,1.0,1.0,2.0,1.0,1.0,50.0,,0 days 00:00:00
2023-11-16 11:33:06.834,0.63593304,0.0,0.5857672,1.2266247,0.3963937,0.0,-0.122116245,0.7294807,0.79985464,0.0,0.46704772,0.95504975,0.98119617,0.0,0.5517493,0.81466806,0.8692751,0.0,0.17877264,0.529864,799.81683,27.802198,794.17584,774.83514,753.0769,0.0,0.0,0.37615966796875,0.1502685546875,0.9090576171875,0.777587890625,-5.18890380859375,-1.51031494140625,18296263.736263737,121612454.2124542,72082637.36263736,82.35535,1.0,1.0,2.0,1.0,1.0,50.0,,0 days 00:00:00
2023-11-16 11:33:06.835,0.63593304,0.0,0.5857672,1.2266247,0.3963937,0.0,-0.122116245,0.7294807,0.79985464,0.0,0.46704772,0.95504975,0.98119617,0.0,0.5517493,0.81466806,0.8692751,0.0,0.17877264,0.529864,816.7399,5.2380953,785.31134,786.9231,896.1172,0.0,0.0,0.37615966796875,0.1502685546875,0.9090576171875,0.777587890625,-5.18890380859375,-1.51031494140625,18296263.736263737,121612454.2124542,72082637.36263736,82.35535,1.0,1.0,2.0,1.0,1.0,50.0,,0 days 00:00:00.001000
2023-11-16 11:33:06.835,0.63593304,0.0,0.5857672,1.2266247,0.3963937,0.0,-0.122116245,0.7294807,0.79985464,0.0,0.46704772,0.95504975,0.98119617,0.0,0.5517493,0.81466806,0.8692751,0.0,0.17877264,0.529864,799.41394,269.96338,799.81683,772.01465,842.1245,0.0,0.0,0.37615966796875,0.1502685546875,0.9090576171875,0.777587890625,-5.18890380859375,-1.51031494140625,18296263.736263737,121612454.2124542,72082637.36263736,82.35535,1.0,1.0,2.0,1.0,1.0,50.0,,0 days 00:00:00
2023-11-16 11:33:06.835,0.63593304,0.0,0.62405187,1.2710773,0.3963937,0.0,-0.09234625,0.72113013,0.79985464,0.0,0.46704772,0.95504975,0.98119617,0.0,0.54646194,0.8292895,0.8692751,0.0,0.14261115,0.49529612,790.54944,496.8132,809.89014,762.74725,826.8132,0.0,0.0,0.37615966796875,0.1502685546875,0.9090576171875,0.777587890625,-5.18890380859375,-1.51031494140625,18296263.736263737,121612454.2124542,72082637.36263736,82.35535,1.0,1.0,2.0,1.0,1.0,50.0,,0 days 00:00:00
2023-11-16 11:33:06.837,0.63593304,0.0,0.62405187,1.2710773,0.3963937,0.0,-0.09234625,0.72113013,0.79985464,0.0,0.46704772,0.95504975,0.98119617,0.0,0.54646194,0.8292895,0.8692751,0.0,0.14261115,0.49529612,807.47253,204.68864,803.44324,785.7143,865.4945,0.0,0.0,0.39654541015625,0.1412353515625,0.92742919921875,0.79254150390625,-8.73291015625,-0.2093505859375,18296263.736263737,121612454.2124542,72082637.36263736,82.35535,1.0,1.0,2.0,1.0,1.0,50.0,,0 days 00:00:00.002000
2023-11-16 11:33:06.837,0.63593304,0.0,0.62405187,1.2710773,0.3963937,0.0,-0.09234625,0.72113013,0.79985464,0.0,0.46704772,0.95504975,0.98119617,0.0,0.54646194,0.8292895,0.8692751,0.0,0.14261115,0.49529612,792.5641,84.212456,800.6227,790.54944,857.8388,0.0,0.0,0.39654541015625,0.1412353515625,0.92742919921875,0.79254150390625,-8.73291015625,-0.2093505859375,18296263.736263737,121612454.2124542,72082637.36263736,82.35535,1.0,1.0,2.0,1.0,1.0,50.0,,0 days 00:00:00
2023-11-16 11:33:06.837,0.63593304,0.0,0.62405187,1.2710773,0.3963937,0.0,-0.09234625,0.72113013,0.79985464,0.0,0.46704772,0.95504975,0.98119617,0.0,0.54646194,0.8292895,0.8692751,0.0,0.14261115,0.49529612,777.25275,344.10257,805.8608,779.67035,793.7729,0.0,0.0,0.39654541015625,0.1412353515625,0.92742919921875,0.79254150390625,-8.73291015625,-0.2093505859375,18296263.736263737,121612454.2124542,72082637.36263736,82.35535,1.0,1.0,2.0,1.0,1.0,50.0,,0 days 00:00:00
2023-11-16 11:33:06.837,0.63593304,0.0,0.62405187,1.2710773,0.3963937,0.0,-0.09234625,0.72113013,0.79985464,0.0,0.46704772,0.95504975,0.98119617,0.0,0.54646194,0.8292895,0.8692751,0.0,0.14261115,0.49529612,782.0879,392.05127,801.8315,772.01465,687.3993,0.0,0.0,0.39654541015625,0.1412353515625,0.92742919921875,0.79254150390625,-8.73291015625,-0.2093505859375,18296263.736263737,121612454.2124542,72082637.36263736,82.35535,1.0,1.0,2.0,1.0,1.0,50.0,,0 days 00:00:00
2023-11-16 11:33:06.838,0.63593304,0.0,0.62405187,1.2710773,0.3963937,0.0,-0.09234625,0.72113013,0.79985464,0.0,0.46704772,0.95504975,0.98119617,0.0,0.54646194,0.8292895,0.8692751,0.0,0.14261115,0.49529612,798.60803,201.4652,796.1905,788.93774,750.65936,0.0,0.0,0.39654541015625,0.1412353515625,0.92742919921875,0.79254150390625,-8.73291015625,-0.2093505859375,18296263.736263737,121612454.2124542,72082637.36263736,82.35535,1.0,1.0,2.0,1.0,1.0,50.0,,0 days 00:00:00.001000
2023-11-16 11:33:06.838,0.63593304,0.0,0.62405187,1.2710773,0.3963937,0.0,-0.09234625,0.72113013,0.79985464,0.0,0.46704772,0.95504975,0.98119617,0.0,0.54646194,0.8292895,0.8692751,0.0,0.14261115,0.49529612,825.2015,2.014652,779.67035,838.9011,1099.1941,0.0,0.0,0.39654541015625,0.1412353515625,0.92742919921875,0.79254150390625,-8.73291015625,-0.2093505859375,18296263.736263737,121612454.2124542,72082637.36263736,82.35535,1.0,1.0,2.0,1.0,1.0,50.0,,0 days 00:00:00
2023-11-16 11:33:06.838,0.63593304,0.0,0.62405187,1.2710773,0.3963937,0.0,-0.09234625,0.72113013,0.79985464,0.0,0.46704772,0.95504975,0.98119617,0.0,0.54646194,0.8292895,0.8692751,0.0,0.14261115,0.49529612,809.4872,0.0,781.685,836.4835,1165.2748,0.0,0.0,0.39654541015625,0.1412353515625,0.92742919921875,0.79254150390625,-8.73291015625,-0.2093505859375,18296263.736263737,121612454.2124542,72082637.36263736,82.35535,1.0,1.0,2.0,1.0,1.0,50.0,,0 days 00:00:00
2023-11-16 11:33:06.838,0.63593304,0.0,0.62405187,1.2710773,0.3963937,0.0,-0.09234625,0.72113013,0.79985464,0.0,0.46704772,0.95504975,0.98119617,0.0,0.54646194,0.8292895,0.8692751,0.0,0.14261115,0.49529612,783.69965,296.95972,812.71063,786.9231,763.1502,0.0,0.0,0.39654541015625,0.1412353515625,0.92742919921875,0.79254150390625,-8.73291015625,-0.2093505859375,18296263.736263737,121612454.2124542,72082637.36263736,82.35535,1.0,1.0,2.0,1.0,1.0,50.0,,0 days 00:00:00
2023-11-16 11:33:06.838,0.63593304,0.0,0.62405187,1.2710773,0.3963937,0.0,-0.09234625,0.72113013,0.79985464,0.0,0.46704772,0.95504975,0.98119617,0.0,0.54646194,0.8292895,0.8692751,0.0,0.14261115,0.49529612,782.8938,289.30402,801.02563,792.1612,720.4396,0.0,0.0,0.39654541015625,0.1412353515625,0.92742919921875,0.79254150390625,-8.73291015625,-0.2093505859375,18296263.736263737,121612454.2124542,72082637.36263736,82.35535,1.0,1.0,2.0,1.0,1.0,50.0,,0 days 00:00:00
2023-11-16 11:33:06.839,0.63593304,0.0,0.62405187,1.2710773,0.3963937,0.0,-0.09234625,0.72113013,0.79985464,0.0,0.46704772,0.95504975,0.98119617,0.0,0.54646194,0.8292895,0.8692751,0.0,0.14261115,0.49529612,791.75824,10.476191,788.1319,823.9927,969.0476,0.0,0.0,0.39654541015625,0.1412353515625,0.92742919921875,0.79254150390625,-8.73291015625,-0.2093505859375,18296263.736263737,121612454.2124542,72082637.36263736,82.35535,1.0,1.0,2.0,1.0,1.0,50.0,,0 days 00:00:00.001000
2023-11-16 11:33:06.839,0.63593304,0.0,0.62405187,1.2710773,0.3963937,0.0,-0.09234625,0.72113013,0.79985464,0.0,0.46704772,0.95504975,0.98119617,0.0,0.54646194,0.8292895,0.8692751,0.0,0.14261115,0.49529612,775.64105,305.42123,816.337,791.75824,805.4579,0.0,0.0,0.39654541015625,0.1412353515625,0.92742919921875,0.79254150390625,-8.73291015625,-0.2093505859375,18296263.736263737,121612454.2124542,72082637.36263736,82.35535,1.0,1.0,2.0,1.0,1.0,50.0,,0 days 00:00:00
2023-11-16 11:33:06.839,0.63593304,0.0,0.62405187,1.2710773,0.3963937,0.0,-0.09234625,0.72113013,0.79985464,0.0,0.46704772,0.95504975,0.98119617,0.0,0.54646194,0.8292895,0.8692751,0.0,0.14261115,0.49529612,772.4176,525.82416,813.5165,777.25275,695.05493,0.0,0.0,0.39654541015625,0.1412353515625,0.92742919921875,0.79254150390625,-8.73291015625,-0.2093505859375,18296263.736263737,121612454.2124542,72082637.36263736,82.35535,1.0,1.0,2.0,1.0,1.0,50.0,,0 days 00:00:00
2023-11-16 11:33:06.965,0.63593304,0.0,0.62405187,1.2710773,0.3963937,0.0,-0.09234625,0.72113013,0.79985464,0.0,0.46704772,0.95504975,0.98119617,0.0,0.54646194,0.8292895,0.8692751,0.0,0.14261115,0.49529612,782.8938,248.20512,792.96704,799.81683,769.59705,0.0,0.0,0.39654541015625,0.1412353515625,0.92742919921875,0.79254150390625,-8.73291015625,-0.2093505859375,18264835.164835166,121731721.6117216,72106813.18681319,83.2979,1.0,1.0,2.0,1.0,1.0,50.0,,0 days 00:00:00.126000
2023-11-16 11:33:06.965,0.63593304,0.0,0.62405187,1.2710773,0.3963937,0.0,-0.09234625,0.72113013,0.79985464,0.0,0.46704772,0.95504975,0.98119617,0.0,0.54646194,0.8292895,0.8692751,0.0,0.14261115,0.49529612,780.4762,298.1685,793.7729,794.17584,774.43225,0.0,0.0,0.39654541015625,0.1412353515625,0.92742919921875,0.79254150390625,-8.73291015625,-0.2093505859375,18264835.164835166,121731721.6117216,72106813.18681319,83.2979,1.0,1.0,2.0,1.0,1.0,50.0,,0 days 00:00:00
2023-11-16 11:33:06.966,0.63593304,0.0,0.62405187,1.2710773,0.3963937,0.0,-0.09234625,0.72113013,0.79985464,0.0,0.46704772,0.95504975,0.98119617,0.0,0.54646194,0.8292895,0.8692751,0.0,0.14261115,0.49529612,776.8498,479.08426,796.1905,788.5348,745.42126,0.0,0.0,0.39654541015625,0.1412353515625,0.92742919921875,0.79254150390625,-8.73291015625,-0.2093505859375,18264835.164835166,121731721.6117216,72106813.18681319,83.2979,1.0,1.0,2.0,1.0,1.0,50.0,,0 days 00:00:00.001000
2023-11-16 11:33:06.966,0.63593304,0.0,0.62405187,1.2710773,0.3963937,0.0,-0.09234625,0.72113013,0.79985464,0.0,0.46704772,0.95504975,0.98119617,0.0,0.54646194,0.8292895,0.8692751,0.0,0.14261115,0.49529612,777.6557,257.87546,788.5348,796.1905,733.73627,0.0,0.0,0.39654541015625,0.1412353515625,0.92742919921875,0.79254150390625,-8.73291015625,-0.2093505859375,18264835.164835166,121731721.6117216,72106813.18681319,83.2979,1.0,1.0,2.0,1.0,1.0,50.0,,0 days 00:00:00
2023-11-16 11:33:06.966,0.63593304,0.0,0.62405187,1.2710773,0.3963937,0.0,-0.09234625,0.72113013,0.79985464,0.0,0.46704772,0.95504975,0.98119617,0.0,0.54646194,0.8292895,0.8692751,0.0,0.14261115,0.49529612,788.93774,51.17216,784.90845,813.5165,854.61536,0.0,0.0,0.39654541015625,0.1412353515625,0.92742919921875,0.79254150390625,-8.73291015625,-0.2093505859375,18264835.164835166,121731721.6117216,72106813.18681319,83.2979,1.0,1.0,2.0,1.0,1.0,50.0,,0 days 00:00:00
2023-11-16 11:33:06.966,0.63593304,0.0,0.62405187,1.2710773,0.3963937,0.0,-0.09234625,0.72113013,0.79985464,0.0,0.46704772,0.95504975,0.98119617,0.0,0.54646194,0.8292895,0.8692751,0.0,0.14261115,0.49529612,784.5055,85.42124,791.75824,807.0696,880.40295,0.0,0.0,0.39654541015625,0.1412353515625,0.92742919921875,0.79254150390625,-8.73291015625,-0.2093505859375,18264835.164835166,121731721.6117216,72106813.18681319,83.2979,1.0,1.0,2.0,1.0,1.0,50.0,,0 days 00:00:00
2023-11-16 11:33:06.967,0.63593304,0.0,0.62405187,1.2710773,0.3963937,0.0,-0.09234625,0.72113013,0.79985464,0.0,0.46704772,0.95504975,0.98119617,0.0,0.54646194,0.8292895,0.8692751,0.0,0.14261115,0.49529612,770.0,136.5934,794.57874,796.5934,794.57874,0.0,0.0,0.39654541015625,0.1412353515625,0.92742919921875,0.79254150390625,-8.73291015625,-0.2093505859375,18264835.164835166,121731721.6117216,72106813.18681319,83.2979,1.0,1.0,2.0,1.0,1.0,50.0,,0 days 00:00:00.001000
2023-11-16 11:33:06.967,0.63593304,0.0,0.62405187,1.2710773,0.3963937,0.0,-0.09234625,0.72113013,0.79985464,0.0,0.46704772,0.95504975,0.98119617,0.0,0.54646194,0.8292895,0.8692751,0.0,0.14261115,0.49529612,765.56775,114.029305,792.5641,797.8022,760.7326,0.0,0.0,0.39654541015625,0.1412353515625,0.92742919921875,0.79254150390625,-8.73291015625,-0.2093505859375,18264835.164835166,121731721.6117216,72106813.18681319,83.2979,1.0,1.0,2.0,1.0,1.0,50.0,,0 days 00:00:00
2023-11-16 11:33:06.967,0.63593304,0.0,0.62405187,1.2710773,0.3963937,0.0,-0.09234625,0.72113013,0.79985464,0.0,0.46704772,0.95504975,0.98119617,0.0,0.54646194,0.8292895,0.8692751,0.0,0.14261115,0.49529612,778.86444,41.904762,783.2967,817.9487,940.0366,0.0,0.0,0.39654541015625,0.1412353515625,0.92742919921875,0.79254150390625,-8.73291015625,-0.2093505859375,18264835.164835166,121731721.6117216,72106813.18681319,83.2979,1.0,1.0,2.0,1.0,1.0,50.0,,0 days 00:00:00
2023-11-16 11:33:06.967,0.63593304,0.0,0.62405187,1.2710773,0.3963937,0.0,-0.09234625,0.72113013,0.79985464,0.0,0.46704772,0.95504975,0.98119617,0.0,0.54646194,0.8292895,0.8692751,0.0,0.14261115,0.49529612,788.1319,0.0,778.86444,843.73627,1134.652,0.0,0.0,0.39654541015625,0.1412353515625,0.92742919921875,0.79254150390625,-8.73291015625,-0.2093505859375,18264835.164835166,121731721.6117216,72106813.18681319,83.2979,1.0,1.0,2.0,1.0,1.0,50.0,,0 days 00:00:00
2023-11-16 11:33:06.968,0.63593304,0.0,0.62405187,1.2710773,0.3963937,0.0,-0.09234625,0.72113013,0.79985464,0.0,0.46704772,0.95504975,0.98119617,0.0,0.54646194,0.8292895,0.8692751,0.0,0.14261115,0.49529612,780.87915,259.08426,803.44324,803.8461,899.7436,0.0,0.0,0.39654541015625,0.1412353515625,0.92742919921875,0.79254150390625,-8.73291015625,-0.2093505859375,18264835.164835166,121731721.6117216,72106813.18681319,83.2979,1.0,1.0,2.0,1.0,1.0,50.0,,0 days 00:00:00.001000
2023-11-16 11:33:06.968,0.63593304,0.0,0.62405187,1.2710773,0.3963937,0.0,-0.09234625,0.72113013,0.79985464,0.0,0.46704772,0.95504975,0.98119617,0.0,0.54646194,0.8292895,0.8692751,0.0,0.14261115,0.49529612,791.3553,464.57877,806.26373,780.87915,705.12823,0.0,0.0,0.39654541015625,0.1412353515625,0.92742919921875,0.79254150390625,-8.73291015625,-0.2093505859375,18264835.164835166,121731721.6117216,72106813.18681319,83.2979,1.0,1.0,2.0,1.0,1.0,50.0,,0 days 00:00:00
2023-11-16 11:33:06.998,0.63593304,0.0,0.62405187,1.2710773,0.3963937,0.0,-0.09234625,0.72113013,0.79985464,0.0,0.46704772,0.95504975,0.98119617,0.0,0.54646194,0.8292895,0.8692751,0.0,0.14261115,0.49529612,781.685,198.24176,794.17584,792.5641,763.1502,0.0,0.0,0.39581298828125,0.13525390625,0.91705322265625,-0.246734619140625,-0.0,5.555267333984375,18264835.164835166,121731721.6117216,72106813.18681319,83.2979,1.0,1.0,2.0,1.0,1.0,50.0,,0 days 00:00:00.030000
2023-11-16 11:33:06.998,0.63593304,0.0,0.64306736,1.2813774,0.3963937,0.0,-0.07218345,0.6988163,0.79985464,0.0,0.46704772,0.95504975,0.98119617,0.0,0.54638165,0.83988285,0.8692751,0.0,0.112646475,0.46133775,757.1062,379.1575,806.6667,783.2967,716.4103,0.0,0.0,0.39581298828125,0.13525390625,0.91705322265625,-0.246734619140625,-0.0,5.555267333984375,18264835.164835166,121731721.6117216,72106813.18681319,83.2979,1.0,1.0,2.0,1.0,1.0,50.0,,0 days 00:00:00
2023-11-16 11:33:07.000,0.63593304,0.0,0.64306736,1.2813774,0.3963937,0.0,-0.07218345,0.6988163,0.79985464,0.0,0.46704772,0.95504975,0.98119617,0.0,0.54638165,0.83988285,0.8692751,0.0,0.112646475,0.46133775,763.1502,570.9524,806.26373,778.46155,669.67035,0.0,0.0,0.39581298828125,0.13525390625,0.91705322265625,-0.246734619140625,-0.0,5.555267333984375,18264835.164835166,121731721.6117216,72106813.18681319,83.2979,1.0,1.0,2.0,1.0,1.0,50.0,,0 days 00:00:00.002000
2023-11-16 11:33:07.001,0.63593304,0.0,0.64306736,1.2813774,0.3963937,0.0,-0.07218345,0.6988163,0.79985464,0.0,0.46704772,0.95504975,0.98119617,0.0,0.54638165,0.83988285,0.8692751,0.0,0.112646475,0.46133775,775.64105,364.652,795.38464,783.69965,726.8865,0.0,0.0,0.39581298828125,0.13525390625,0.91705322265625,-0.246734619140625,-0.0,5.555267333984375,18264835.164835166,121731721.6117216,72106813.18681319,83.2979,1.0,1.0,2.0,1.0,1.0,50.0,,0 days 00:00:00.001000
2023-11-16 11:33:07.001,0.63593304,0.0,0.64306736,1.2813774,0.3963937,0.0,-0.07218345,0.6988163,0.79985464,0.0,0.46704772,0.95504975,0.98119617,0.0,0.54638165,0.83988285,0.8692751,0.0,0.112646475,0.46133775,785.31134,194.21245,799.81683,784.10254,819.15753,0.0,0.0,0.39581298828125,0.13525390625,0.91705322265625,-0.246734619140625,-0.0,5.555267333984375,18264835.164835166,121731721.6117216,72106813.18681319,83.2979,1.0,1.0,2.0,1.0,1.0,50.0,,0 days 00:00:00
2023-11-16 11:33:07.002,0.63593304,0.0,0.64306736,1.2813774,0.3963937,0.0,-0.07218345,0.6988163,0.79985464,0.0,0.46704772,0.95504975,0.98119617,0.0,0.54638165,0.83988285,0.8692751,0.0,0.112646475,0.46133775,783.2967,162.38095,799.81683,782.0879,798.60803,0.0,0.0,0.39581298828125,0.13525390625,0.91705322265625,-0.246734619140625,-0.0,5.555267333984375,18264835.164835166,121731721.6117216,72106813.18681319,83.2979,1.0,1.0,2.0,1.0,1.0,50.0,,0 days 00:00:00.001000
2023-11-16 11:33:07.002,0.63593304,0.0,0.64306736,1.2813774,0.3963937,0.0,-0.07218345,0.6988163,0.79985464,0.0,0.46704772,0.95504975,0.98119617,0.0,0.54638165,0.83988285,0.8692751,0.0,0.112646475,0.46133775,761.9414,59.23077,791.3553,779.67035,728.0952,0.0,0.0,0.39581298828125,0.13525390625,0.91705322265625,-0.246734619140625,-0.0,5.555267333984375,18264835.164835166,121731721.6117216,72106813.18681319,83.2979,1.0,1.0,2.0,1.0,1.0,50.0,,0 days 00:00:00
2023-11-16 11:33:07.003,0.63593304,0.0,0.64306736,1.2813774,0.3963937,0.0,-0.07218345,0.6988163,0.79985464,0.0,0.46704772,0.95504975,0.98119617,0.0,0.54638165,0.83988285,0.8692751,0.0,0.112646475,0.46133775,779.2674,43.919415,798.60803,778.86444,858.24176,0.0,0.0,0.39581298828125,0.13525390625,0.91705322265625,-0.246734619140625,-0.0,5.555267333984375,18264835.164835166,121731721.6117216,72106813.18681319,83.2979,1.0,1.0,2.0,1.0,1.0,50.0,,0 days 00:00:00.001000
2023-11-16 11:33:07.003,0.63593304,0.0,0.64306736,1.2813774,0.3963937,0.0,-0.07218345,0.6988163,0.79985464,0.0,0.46704772,0.95504975,0.98119617,0.0,0.54638165,0.83988285,0.8692751,0.0,0.112646475,0.46133775,784.10254,195.42125,806.26373,779.67035,907.3993,0.0,0.0,0.39581298828125,0.13525390625,0.91705322265625,-0.246734619140625,-0.0,5.555267333984375,18264835.164835166,121731721.6117216,72106813.18681319,83.2979,1.0,1.0,2.0,1.0,1.0,50.0,,0 days 00:00:00
2023-11-16 11:33:07.003,0.63593304,0.0,0.64306736,1.2813774,0.3963937,0.0,-0.07218345,0.6988163,0.79985464,0.0,0.46704772,0.95504975,0.98119617,0.0,0.54638165,0.83988285,0.8692751,0.0,0.112646475,0.46133775,767.98535,434.7619,812.3077,780.4762,801.4286,0.0,0.0,0.39581298828125,0.13525390625,0.91705322265625,-0.246734619140625,-0.0,5.555267333984375,18264835.164835166,121731721.6117216,72106813.18681319,83.2979,1.0,1.0,2.0,1.0,1.0,50.0,,0 days 00:00:00
2023-11-16 11:33:07.004,0.63593304,0.0,0.64306736,1.2813774,0.3963937,0.0,-0.07218345,0.6988163,0.79985464,0.0,0.46704772,0.95504975,0.98119617,0.0,0.54638165,0.83988285,0.8692751,0.0,0.112646475,0.46133775,784.10254,442.01465,807.0696,789.7436,784.90845,0.0,0.0,0.39581298828125,0.13525390625,0.91705322265625,-0.246734619140625,-0.0,5.555267333984375,18264835.164835166,121731721.6117216,72106813.18681319,83.2979,1.0,1.0,2.0,1.0,1.0,50.0,,0 days 00:00:00.001000
2023-11-16 11:33:07.004,0.63593304,0.0,0.64306736,1.2813774,0.3963937,0.0,-0.07218345,0.6988163,0.79985464,0.0,0.46704772,0.95504975,0.98119617,0.0,0.54638165,0.83988285,0.8692751,0.0,0.112646475,0.46133775,788.1319,179.30403,797.3993,801.4286,828.022,0.0,0.0,0.39581298828125,0.13525390625,0.91705322265625,-0.246734619140625,-0.0,5.555267333984375,18264835.164835166,121731721.6117216,72106813.18681319,83.2979,1.0,1.0,2.0,1.0,1.0,50.0,,0 days 00:00:00
2023-11-16 11:33:07.009,0.63593304,0.0,0.64306736,1.2813774,0.3963937,0.0,-0.07218345,0.6988163,0.79985464,0.0,0.46704772,0.95504975,0.98119617,0.0,0.54638165,0.83988285,0.8692751,0.0,0.112646475,0.46133775,774.43225,215.56776,804.2491,794.17584,864.2857,0.0,0.0,0.376220703125,0.1217041015625,0.9072265625,-0.635528564453125,-7.334747314453125,6.990814208984375,18375238.095238093,121831648.35164836,72088278.38827838,84.1853,1.0,1.0,2.0,1.0,1.0,50.0,,0 days 00:00:00.005000
2023-11-16 11:33:07.009,0.63593304,0.0,0.64306736,1.2813774,0.3963937,0.0,-0.07218345,0.6988163,0.79985464,0.0,0.46704772,0.95504975,0.98119617,0.0,0.54638165,0.83988285,0.8692751,0.0,0.112646475,0.46133775,784.10254,432.74725,815.12823,788.1319,783.2967,0.0,0.0,0.376220703125,0.1217041015625,0.9072265625,-0.635528564453125,-7.334747314453125,6.990814208984375,18375238.095238093,121831648.35164836,72088278.38827838,84.1853,1.0,1.0,2.0,1.0,1.0,50.0,,0 days 00:00:00
2023-11-16 11:33:07.010,0.63593304,0.0,0.64306736,1.2813774,0.3963937,0.0,-0.07218345,0.6988163,0.79985464,0.0,0.46704772,0.95504975,0.98119617,0.0,0.54638165,0.83988285,0.8692751,0.0,0.112646475,0.46133775,816.337,394.06595,807.8755,797.3993,787.72894,0.0,0.0,0.376220703125,0.1217041015625,0.9072265625,-0.635528564453125,-7.334747314453125,6.990814208984375,18375238.095238093,121831648.35164836,72088278.38827838,84.1853,1.0,1.0,2.0,1.0,1.0,50.0,,0 days 00:00:00.001000
2023-11-16 11:33:07.010,0.63593304,0.0,0.64306736,1.2813774,0.3963937,0.0,-0.07218345,0.6988163,0.79985464,0.0,0.46704772,0.95504975,0.98119617,0.0,0.54638165,0.83988285,0.8692751,0.0,0.112646475,0.46133775,806.6667,120.47619,787.72894,796.5934,848.1685,0.0,0.0,0.376220703125,0.1217041015625,0.9072265625,-0.635528564453125,-7.334747314453125,6.990814208984375,18375238.095238093,121831648.35164836,72088278.38827838,84.1853,1.0,1.0,2.0,1.0,1.0,50.0,,0 days 00:00:00
2023-11-16 11:33:07.010,0.63593304,0.0,0.64306736,1.2813774,0.3963937,0.0,-0.07218345,0.6988163,0.79985464,0.0,0.46704772,0.95504975,0.98119617,0.0,0.54638165,0.83988285,0.8692751,0.0,0.112646475,0.46133775,782.8938,99.92674,794.17584,799.41394,762.3443,0.0,0.0,0.376220703125,0.1217041015625,0.9072265625,-0.635528564453125,-7.334747314453125,6.990814208984375,18375238.095238093,121831648.35164836,72088278.38827838,84.1853,1.0,1.0,2.0,1.0,1.0,50.0,,0 days 00:00:00
2023-11-16 11:33:07.011,0.63593304,0.0,0.64306736,1.2813774,0.3963937,0.0,-0.07218345,0.6988163,0.79985464,0.0,0.46704772,0.95504975,0.98119617,0.0,0.54638165,0.83988285,0.8692751,0.0,0.112646475,0.46133775,786.52014,105.567764,804.2491,806.26373,788.93774,0.0,0.0,0.376220703125,0.1217041015625,0.9072265625,-0.635528564453125,-7.334747314453125,6.990814208984375,18375238.095238093,121831648.35164836,72088278.38827838,84.1853,1.0,1.0,2.0,1.0,1.0,50.0,,0 days 00:00:00.001000
2023-11-16 11:33:07.011,0.63593304,0.0,0.64306736,1.2813774,0.3963937,0.0,-0.07218345,0.6988163,0.79985464,0.0,0.46704772,0.95504975,0.98119617,0.0,0.54638165,0.83988285,0.8692751,0.0,0.112646475,0.46133775,802.23444,24.981686,798.20514,811.50183,940.0366,0.0,0.0,0.376220703125,0.1217041015625,0.9072265625,-0.635528564453125,-7.334747314453125,6.990814208984375,18375238.095238093,121831648.35164836,72088278.38827838,84.1853,1.0,1.0,2.0,1.0,1.0,50.0,,0 days 00:00:00
2023-11-16 11:33:07.011,0.63593304,0.0,0.64306736,1.2813774,0.3963937,0.0,-0.07218345,0.6988163,0.79985464,0.0,0.46704772,0.95504975,0.98119617,0.0,0.54638165,0.83988285,0.8692751,0.0,0.112646475,0.46133775,819.5604,5.6410255,789.7436,826.0073,996.4469,0.0,0.0,0.376220703125,0.1217041015625,0.9072265625,-0.635528564453125,-7.334747314453125,6.990814208984375,18375238.095238093,121831648.35164836,72088278.38827838,84.1853,1.0,1.0,2.0,1.0,1.0,50.0,,0 days 00:00:00
2023-11-16 11:33:07.012,0.63593304,0.0,0.64306736,1.2813774,0.3963937,0.0,-0.07218345,0.6988163,0.79985464,0.0,0.46704772,0.95504975,0.98119617,0.0,0.54638165,0.83988285,0.8692751,0.0,0.112646475,0.46133775,801.8315,153.11356,794.17584,806.6667,861.4652,0.0,0.0,0.376220703125,0.1217041015625,0.9072265625,-0.635528564453125,-7.334747314453125,6.990814208984375,18375238.095238093,121831648.35164836,72088278.38827838,84.1853,1.0,1.0,2.0,1.0,1.0,50.0,,0 days 00:00:00.001000
2023-11-16 11:33:07.012,0.63593304,0.0,0.64306736,1.2813774,0.3963937,0.0,-0.07218345,0.6988163,0.79985464,0.0,0.46704772,0.95504975,0.98119617,0.0,0.54638165,0.83988285,0.8692751,0.0,0.112646475,0.46133775,798.20514,271.5751,796.99634,793.36993,747.4359,0.0,0.0,0.376220703125,0.1217041015625,0.9072265625,-0.635528564453125,-7.334747314453125,6.990814208984375,18375238.095238093,121831648.35164836,72088278.38827838,84.1853,1.0,1.0,2.0,1.0,1.0,50.0,,0 days 00:00:00
2023-11-16 11:33:07.012,0.63593304,0.0,0.64306736,1.2813774,0.3963937,0.0,-0.07218345,0.6988163,0.79985464,0.0,0.46704772,0.95504975,0.98119617,0.0,0.54638165,0.83988285,0.8692751,0.0,0.112646475,0.46133775,806.6667,98.31502,785.7143,799.81683,800.2198,0.0,0.0,0.376220703125,0.1217041015625,0.9072265625,-0.635528564453125,-7.334747314453125,6.990814208984375,18375238.095238093,121831648.35164836,72088278.38827838,84.1853,1.0,1.0,2.0,1.0,1.0,50.0,,0 days 00:00:00
2023-11-16 11:33:07.013,0.63593304,0.0,0.64306736,1.2813774,0.3963937,0.0,-0.07218345,0.6988163,0.79985464,0.0,0.46704772,0.95504975,0.98119617,0.0,0.54638165,0.83988285,0.8692751,0.0,0.112646475,0.46133775,805.05493,108.388275,790.14655,796.5934,885.64105,0.0,0.0,0.376220703125,0.1217041015625,0.9072265625,-0.635528564453125,-7.334747314453125,6.990814208984375,18375238.095238093,121831648.35164836,72088278.38827838,84.1853,1.0,1.0,2.0,1.0,1.0,50.0,,0 days 00:00:00.001000
2023-11-16 11:33:07.049,0.63593304,0.0,0.64306736,1.2813774,0.3963937,0.0,-0.07218345,0.6988163,0.79985464,0.0,0.46704772,0.95504975,0.98119617,0.0,0.54638165,0.83988285,0.8692751,0.0,0.112646475,0.46133775,798.20514,370.29303,802.6374,789.34064,794.17584,0.0,0.0,0.387451171875,0.1197509765625,0.9105224609375,2.429962158203125,-3.33465576171875,7.977752685546875,18375238.095238093,121831648.35164836,72088278.38827838,84.1853,1.0,1.0,2.0,1.0,1.0,50.0,,0 days 00:00:00.036000
2023-11-16 11:33:07.050,0.63593304,0.0,0.64306736,1.2813774,0.3963937,0.0,-0.07218345,0.6988163,0.79985464,0.0,0.46704772,0.95504975,0.98119617,0.0,0.54638165,0.83988285,0.8692751,0.0,0.112646475,0.46133775,816.337,470.2198,801.02563,789.7436,720.4396,0.0,0.0,0.387451171875,0.1197509765625,0.9105224609375,2.429962158203125,-3.33465576171875,7.977752685546875,18375238.095238093,121831648.35164836,72088278.38827838,84.1853,1.0,1.0,2.0,1.0,1.0,50.0,,0 days 00:00:00.001000
2023-11-16 11:33:07.051,0.63593304,0.0,0.64306736,1.2813774,0.3963937,0.0,-0.07218345,0.6988163,0.79985464,0.0,0.46704772,0.95504975,0.98119617,0.0,0.54638165,0.83988285,0.8692751,0.0,0.112646475,0.46133775,826.8132,294.94507,790.9524,796.1905,734.1392,0.0,0.0,0.387451171875,0.1197509765625,0.9105224609375,2.429962158203125,-3.33465576171875,7.977752685546875,18375238.095238093,121831648.35164836,72088278.38827838,84.1853,1.0,1.0,2.0,1.0,1.0,50.0,,0 days 00:00:00.001000
2023-11-16 11:33:07.051,0.6850965,0.0,0.64820945,1.2727734,0.4554389,0.0,-0.06597815,0.67719066,0.9180622,0.0,0.46704772,0.95504975,0.9828355,0.0,0.54830056,0.84990245,0.8592331,0.0,0.09151907,0.43500802,811.9048,29.41392,773.6264,825.2015,977.9121,0.0,0.0,0.387451171875,0.1197509765625,0.9105224609375,2.429962158203125,-3.33465576171875,7.977752685546875,18375238.095238093,121831648.35164836,72088278.38827838,84.1853,1.0,1.0,2.0,1.0,1.0,50.0,,0 days 00:00:00
2023-11-16 11:33:07.054,0.6850965,0.0,0.64820945,1.2727734,0.4554389,0.0,-0.06597815,0.67719066,0.9180622,0.0,0.46704772,0.95504975,0.9828355,0.0,0.54830056,0.84990245,0.8592331,0.0,0.09151907,0.43500802,815.12823,1.2087913,779.2674,841.31866,1163.663,0.0,0.0,0.387451171875,0.1197509765625,0.9105224609375,2.429962158203125,-3.33465576171875,7.977752685546875,18375238.095238093,121831648.35164836,72088278.38827838,84.1853,1.0,1.0,2.0,1.0,1.0,50.0,,0 days 00:00:00.003000
2023-11-16 11:33:07.054,0.6850965,0.0,0.64820945,1.2727734,0.4554389,0.0,-0.06597815,0.67719066,0.9180622,0.0,0.46704772,0.95504975,0.9828355,0.0,0.54830056,0.84990245,0.8592331,0.0,0.09151907,0.43500802,819.9634,4.029304,786.1172,836.8865,1220.0732,0.0,0.0,0.387451171875,0.1197509765625,0.9105224609375,2.429962158203125,-3.33465576171875,7.977752685546875,18375238.095238093,121831648.35164836,72088278.38827838,84.1853,1.0,1.0,2.0,1.0,1.0,50.0,,0 days 00:00:00
2023-11-16 11:33:07.055,0.6850965,0.0,0.64820945,1.2727734,0.4554389,0.0,-0.06597815,0.67719066,0.9180622,0.0,0.46704772,0.95504975,0.9828355,0.0,0.54830056,0.84990245,0.8592331,0.0,0.09151907,0.43500802,807.8755,18.534798,800.6227,811.9048,1097.9854,0.0,0.0,0.387451171875,0.1197509765625,0.9105224609375,2.429962158203125,-3.33465576171875,7.977752685546875,18375238.095238093,121831648.35164836,72088278.38827838,84.1853,1.0,1.0,2.0,1.0,1.0,50.0,,0 days 00:00:00.001000
2023-11-16 11:33:07.055,0.6850965,0.0,0.64820945,1.2727734,0.4554389,0.0,-0.06597815,0.67719066,0.9180622,0.0,0.46704772,0.95504975,0.9828355,0.0,0.54830056,0.84990245,0.8592331,0.0,0.09151907,0.43500802,810.293,333.22345,814.7253,773.22345,727.6923,0.0,0.0,0.387451171875,0.1197509765625,0.9105224609375,2.429962158203125,-3.33465576171875,7.977752685546875,18375238.095238093,121831648.35164836,72088278.38827838,84.1853,1.0,1.0,2.0,1.0,1.0,50.0,,0 days 00:00:00
2023-11-16 11:33:07.056,0.6850965,0.0,0.64820945,1.2727734,0.4554389,0.0,-0.06597815,0.67719066,0.9180622,0.0,0.46704772,0.95504975,0.9828355,0.0,0.54830056,0.84990245,0.8592331,0.0,0.09151907,0.43500802,804.2491,561.28204,807.47253,765.9707,675.31134,0.0,0.0,0.387451171875,0.1197509765625,0.9105224609375,2.429962158203125,-3.33465576171875,7.977752685546875,18375238.095238093,121831648.35164836,72088278.38827838,84.1853,1.0,1.0,2.0,1.0,1.0,50.0,,0 days 00:00:00.001000
2023-11-16 11:33:07.056,0.6850965,0.0,0.64820945,1.2727734,0.4554389,0.0,-0.06597815,0.67719066,0.9180622,0.0,0.46704772,0.95504975,0.9828355,0.0,0.54830056,0.84990245,0.8592331,0.0,0.09151907,0.43500802,787.72894,574.9817,804.65204,767.5824,687.3993,0.0,0.0,0.387451171875,0.1197509765625,0.9105224609375,2.429962158203125,-3.33465576171875,7.977752685546875,18375238.095238093,121831648.35164836,72088278.38827838,84.1853,1.0,1.0,2.0,1.0,1.0,50.0,,0 days 00:00:00
2023-11-16 11:33:07.057,0.6850965,0.0,0.64820945,1.2727734,0.4554389,0.0,-0.06597815,0.67719066,0.9180622,0.0,0.46704772,0.95504975,0.9828355,0.0,0.54830056,0.84990245,0.8592331,0.0,0.09151907,0.43500802,817.5458,309.8535,793.7729,785.31134,759.5238,0.0,0.0,0.387451171875,0.1197509765625,0.9105224609375,2.429962158203125,-3.33465576171875,7.977752685546875,18375238.095238093,121831648.35164836,72088278.38827838,84.1853,1.0,1.0,2.0,1.0,1.0,50.0,,0 days 00:00:00.001000
2023-11-16 11:33:07.057,0.6850965,0.0,0.64820945,1.2727734,0.4554389,0.0,-0.06597815,0.67719066,0.9180622,0.0,0.46704772,0.95504975,0.9828355,0.0,0.54830056,0.84990245,0.8592331,0.0,0.09151907,0.43500802,823.1868,167.61905,794.17584,788.1319,858.24176,0.0,0.0,0.387451171875,0.1197509765625,0.9105224609375,2.429962158203125,-3.33465576171875,7.977752685546875,18375238.095238093,121831648.35164836,72088278.38827838,84.1853,1.0,1.0,2.0,1.0,1.0,50.0,,0 days 00:00:00
2023-11-16 11:33:07.099,0.6850965,0.0,0.64820945,1.2727734,0.4554389,0.0,-0.06597815,0.67719066,0.9180622,0.0,0.46704772,0.95504975,0.9828355,0.0,0.54830056,0.84990245,0.8592331,0.0,0.09151907,0.43500802,795.38464,259.8901,805.05493,776.04395,668.86444,0.0,0.0,0.378173828125,0.134521484375,0.9136962890625,4.254302978515625,-6.602020263671875,5.87677001953125,18399413.91941392,121832454.2124542,72075384.61538461,85.020775,1.0,1.0,2.0,1.0,1.0,50.0,,0 days 00:00:00.042000
2023-11-16 11:33:07.100,0.6850965,0.0,0.64820945,1.2727734,0.4554389,0.0,-0.06597815,0.67719066,0.9180622,0.0,0.46704772,0.95504975,0.9828355,0.0,0.54830056,0.84990245,0.8592331,0.0,0.09151907,0.43500802,791.75824,120.47619,796.5934,779.2674,661.2088,0.0,0.0,0.378173828125,0.134521484375,0.9136962890625,4.254302978515625,-6.602020263671875,5.87677001953125,18399413.91941392,121832454.2124542,72075384.61538461,85.020775,1.0,1.0,2.0,1.0,1.0,50.0,,0 days 00:00:00.001000
2023-11-16 11:33:07.100,0.6850965,0.0,0.64820945,1.2727734,0.4554389,0.0,-0.06597815,0.67719066,0.9180622,0.0,0.46704772,0.95504975,0.9828355,0.0,0.54830056,0.84990245,0.8592331,0.0,0.09151907,0.43500802,801.8315,45.531136,788.5348,789.34064,799.81683,0.0,0.0,0.378173828125,0.134521484375,0.9136962890625,4.254302978515625,-6.602020263671875,5.87677001953125,18399413.91941392,121832454.2124542,72075384.61538461,85.020775,1.0,1.0,2.0,1.0,1.0,50.0,,0 days 00:00:00
2023-11-16 11:33:07.101,0.6850965,0.0,0.64820945,1.2727734,0.4554389,0.0,-0.06597815,0.67719066,0.9180622,0.0,0.46704772,0.95504975,0.9828355,0.0,0.54830056,0.84990245,0.8592331,0.0,0.09151907,0.43500802,783.69965,275.20148,796.1905,777.6557,774.0293,0.0,0.0,0.378173828125,0.134521484375,0.9136962890625,4.254302978515625,-6.602020263671875,5.87677001953125,18399413.91941392,121832454.2124542,72075384.61538461,85.020775,1.0,1.0,2.0,1.0,1.0,50.0,,0 days 00:00:00.001000
2023-11-16 11:33:07.101,0.6850965,0.0,0.64820945,1.2727734,0.4554389,0.0,-0.06597815,0.67719066,0.9180622,0.0,0.46704772,0.95504975,0.9828355,0.0,0.54830056,0.84990245,0.8592331,0.0,0.09151907,0.43500802,779.2674,408.57144,796.1905,770.80585,668.46155,0.0,0.0,0.378173828125,0.134521484375,0.9136962890625,4.254302978515625,-6.602020263671875,5.87677001953125,18399413.91941392,121832454.2124542,72075384.61538461,85.020775,1.0,1.0,2.0,1.0,1.0,50.0,,0 days 00:00:00
2023-11-16 11:33:07.102,0.6850965,0.0,0.64820945,1.2727734,0.4554389,0.0,-0.06597815,0.67719066,0.9180622,0.0,0.46704772,0.95504975,0.9828355,0.0,0.54830056,0.84990245,0.8592331,0.0,0.09151907,0.43500802,792.5641,125.311356,791.3553,776.8498,731.7216,0.0,0.0,0.378173828125,0.134521484375,0.9136962890625,4.254302978515625,-6.602020263671875,5.87677001953125,18399413.91941392,121832454.2124542,72075384.61538461,85.020775,1.0,1.0,2.0,1.0,1.0,50.0,,0 days 00:00:00.001000
2023-11-16 11:33:07.102,0.6850965,0.0,0.64820945,1.2727734,0.4554389,0.0,-0.06597815,0.67719066,0.9180622,0.0,0.46704772,0.95504975,0.9828355,0.0,0.54830056,0.84990245,0.8592331,0.0,0.09151907,0.43500802,811.0989,6.849817,777.25275,794.17584,914.2491,0.0,0.0,0.378173828125,0.134521484375,0.9136962890625,4.254302978515625,-6.602020263671875,5.87677001953125,18399413.91941392,121832454.2124542,72075384.61538461,85.020775,1.0,1.0,2.0,1.0,1.0,50.0,,0 days 00:00:00
2023-11-16 11:33:07.103,0.6850965,0.0,0.64820945,1.2727734,0.4554389,0.0,-0.06597815,0.67719066,0.9180622,0.0,0.46704772,0.95504975,0.9828355,0.0,0.54830056,0.84990245,0.8592331,0.0,0.09151907,0.43500802,811.9048,22.564102,780.07324,795.78754,950.9158,0.0,0.0,0.378173828125,0.134521484375,0.9136962890625,4.254302978515625,-6.602020263671875,5.87677001953125,18399413.91941392,121832454.2124542,72075384.61538461,85.020775,1.0,1.0,2.0,1.0,1.0,50.0,,0 days 00:00:00.001000
2023-11-16 11:33:07.103,0.6850965,0.0,0.64820945,1.2727734,0.4554389,0.0,-0.06597815,0.67719066,0.9180622,0.0,0.46704772,0.95504975,0.9828355,0.0,0.54830056,0.84990245,0.8592331,0.0,0.09151907,0.43500802,801.4286,235.71428,801.02563,767.5824,772.8205,0.0,0.0,0.378173828125,0.134521484375,0.9136962890625,4.254302978515625,-6.602020263671875,5.87677001953125,18399413.91941392,121832454.2124542,72075384.61538461,85.020775,1.0,1.0,2.0,1.0,1.0,50.0,,0 days 00:00:00
2023-11-16 11:33:07.103,0.6850965,0.0,0.64820945,1.2727734,0.4554389,0.0,-0.06597815,0.67719066,0.9180622,0.0,0.46704772,0.95504975,0.9828355,0.0,0.54830056,0.84990245,0.8592331,0.0,0.09151907,0.43500802,802.23444,408.57144,794.57874,777.6557,724.0659,0.0,0.0,0.378173828125,0.134521484375,0.9136962890625,4.254302978515625,-6.602020263671875,5.87677001953125,18399413.91941392,121832454.2124542,72075384.61538461,85.020775,1.0,1.0,2.0,1.0,1.0,50.0,,0 days 00:00:00
2023-11-16 11:33:07.104,0.6850965,0.0,0.64820945,1.2727734,0.4554389,0.0,-0.06597815,0.67719066,0.9180622,0.0,0.46704772,0.95504975,0.9828355,0.0,0.54830056,0.84990245,0.8592331,0.0,0.09151907,0.43500802,811.9048,131.35532,780.87915,796.99634,878.3883,0.0,0.0,0.378173828125,0.134521484375,0.9136962890625,4.254302978515625,-6.602020263671875,5.87677001953125,18399413.91941392,121832454.2124542,72075384.61538461,85.020775,1.0,1.0,2.0,1.0,1.0,50.0,,0 days 00:00:00.001000
2023-11-16 11:33:07.104,0.6850965,0.0,0.64820945,1.2727734,0.4554389,0.0,-0.06597815,0.67719066,0.9180622,0.0,0.46704772,0.95504975,0.9828355,0.0,0.54830056,0.84990245,0.8592331,0.0,0.09151907,0.43500802,806.26373,254.24908,796.99634,786.52014,802.23444,0.0,0.0,0.378173828125,0.134521484375,0.9136962890625,4.254302978515625,-6.602020263671875,5.87677001953125,18399413.91941392,121832454.2124542,72075384.61538461,85.020775,1.0,1.0,2.0,1.0,1.0,50.0,,0 days 00:00:00
2023-11-16 11:33:07.135,0.6850965,0.0,0.64820945,1.2727734,0.4554389,0.0,-0.06597815,0.67719066,0.9180622,0.0,0.46704772,0.95504975,0.9828355,0.0,0.54830056,0.84990245,0.8592331,0.0,0.09151907,0.43500802,797.8022,475.05493,803.0403,780.07324,728.49817,0.0,0.0,0.378173828125,0.134521484375,0.9136962890625,4.254302978515625,-6.602020263671875,5.87677001953125,18399413.91941392,121832454.2124542,72075384.61538461,85.020775,1.0,1.0,2.0,1.0,1.0,50.0,,0 days 00:00:00.031000
2023-11-16 11:33:07.136,0.6850965,0.0,0.64820945,1.2727734,0.4554389,0.0,-0.06597815,0.67719066,0.9180622,0.0,0.46704772,0.95504975,0.9828355,0.0,0.54830056,0.84990245,0.8592331,0.0,0.09151907,0.43500802,799.81683,383.58975,788.1319,784.10254,813.91943,0.0,0.0,0.378173828125,0.134521484375,0.9136962890625,4.254302978515625,-6.602020263671875,5.87677001953125,18399413.91941392,121832454.2124542,72075384.61538461,85.020775,1.0,1.0,2.0,1.0,1.0,50.0,,0 days 00:00:00.001000
2023-11-16 11:33:07.136,0.6850965,0.0,0.64820945,1.2727734,0.4554389,0.0,-0.06597815,0.67719066,0.9180622,0.0,0.46704772,0.95504975,0.9828355,0.0,0.54830056,0.84990245,0.8592331,0.0,0.09151907,0.43500802,799.011,208.71794,786.9231,790.14655,982.74725,0.0,0.0,0.378173828125,0.134521484375,0.9136962890625,4.254302978515625,-6.602020263671875,5.87677001953125,18399413.91941392,121832454.2124542,72075384.61538461,85.020775,1.0,1.0,2.0,1.0,1.0,50.0,,0 days 00:00:00
2023-11-16 11:33:07.137,0.6850965,0.0,0.64820945,1.2727734,0.4554389,0.0,-0.06597815,0.67719066,0.9180622,0.0,0.46704772,0.95504975,0.9828355,0.0,0.54830056,0.84990245,0.8592331,0.0,0.09151907,0.43500802,807.47253,383.58975,793.7729,785.31134,910.2198,0.0,0.0,0.378173828125,0.134521484375,0.9136962890625,4.254302978515625,-6.602020263671875,5.87677001953125,18399413.91941392,121832454.2124542,72075384.61538461,85.020775,1.0,1.0,2.0,1.0,1.0,50.0,,0 days 00:00:00.001000
2023-11-16 11:33:07.137,0.6850965,0.0,0.64820945,1.2727734,0.4554389,0.0,-0.06597815,0.67719066,0.9180622,0.0,0.46704772,0.95504975,0.9828355,0.0,0.54830056,0.84990245,0.8592331,0.0,0.09151907,0.43500802,810.696,286.88644,787.326,788.5348,740.58606,0.0,0.0,0.378173828125,0.134521484375,0.9136962890625,4.254302978515625,-6.602020263671875,5.87677001953125,18399413.91941392,121832454.2124542,72075384.61538461,85.020775,1.0,1.0,2.0,1.0,1.0,50.0,,0 days 00:00:00
2023-11-16 11:33:07.138,0.7233276,0.0,0.64654225,1.2545475,0.49240938,0.0,-0.06581697,0.6655744,0.9219405,0.0,0.4667073,0.95504975,0.9769846,0.0,0.54832053,0.86085737,0.84907925,0.0,0.07455779,0.422248,812.71063,50.3663,778.86444,794.57874,723.663,0.0,0.0,0.378173828125,0.134521484375,0.9136962890625,4.254302978515625,-6.602020263671875,5.87677001953125,18399413.91941392,121832454.2124542,72075384.61538461,85.020775,1.0,1.0,2.0,1.0,1.0,50.0,,0 days 00:00:00.001000
2023-11-16 11:33:07.140,0.7233276,0.0,0.64654225,1.2545475,0.49240938,0.0,-0.06581697,0.6655744,0.9219405,0.0,0.4667073,0.95504975,0.9769846,0.0,0.54832053,0.86085737,0.84907925,0.0,0.07455779,0.422248,815.9341,0.0,773.22345,815.9341,1036.7399,0.0,0.0,0.378173828125,0.134521484375,0.9136962890625,4.254302978515625,-6.602020263671875,5.87677001953125,18399413.91941392,121832454.2124542,72075384.61538461,85.020775,1.0,1.0,2.0,1.0,1.0,50.0,,0 days 00:00:00.002000
2023-11-16 11:33:07.141,0.7233276,0.0,0.64654225,1.2545475,0.49240938,0.0,-0.06581697,0.6655744,0.9219405,0.0,0.4667073,0.95504975,0.9769846,0.0,0.54832053,0.86085737,0.84907925,0.0,0.07455779,0.422248,794.17584,209.5238,792.96704,791.75824,970.2564,0.0,0.0,0.378173828125,0.134521484375,0.9136962890625,4.254302978515625,-6.602020263671875,5.87677001953125,18399413.91941392,121832454.2124542,72075384.61538461,85.020775,1.0,1.0,2.0,1.0,1.0,50.0,,0 days 00:00:00.001000
2023-11-16 11:33:07.141,0.7233276,0.0,0.64654225,1.2545475,0.49240938,0.0,-0.06581697,0.6655744,0.9219405,0.0,0.4667073,0.95504975,0.9769846,0.0,0.54832053,0.86085737,0.84907925,0.0,0.07455779,0.422248,792.5641,511.72162,803.44324,764.7619,695.05493,0.0,0.0,0.378173828125,0.134521484375,0.9136962890625,4.254302978515625,-6.602020263671875,5.87677001953125,18399413.91941392,121832454.2124542,72075384.61538461,85.020775,1.0,1.0,2.0,1.0,1.0,50.0,,0 days 00:00:00
2023-11-16 11:33:07.141,0.7233276,0.0,0.64654225,1.2545475,0.49240938,0.0,-0.06581697,0.6655744,0.9219405,0.0,0.4667073,0.95504975,0.9769846,0.0,0.54832053,0.86085737,0.84907925,0.0,0.07455779,0.422248,809.0842,392.85715,792.1612,780.4762,718.4249,0.0,0.0,0.378173828125,0.134521484375,0.9136962890625,4.254302978515625,-6.602020263671875,5.87677001953125,18399413.91941392,121832454.2124542,72075384.61538461,85.020775,1.0,1.0,2.0,1.0,1.0,50.0,,0 days 00:00:00
2023-11-16 11:33:07.141,0.7233276,0.0,0.64654225,1.2545475,0.49240938,0.0,-0.06581697,0.6655744,0.9219405,0.0,0.4667073,0.95504975,0.9769846,0.0,0.54832053,0.86085737,0.84907925,0.0,0.07455779,0.422248,811.9048,367.87546,791.3553,786.1172,726.08057,0.0,0.0,0.378173828125,0.134521484375,0.9136962890625,4.254302978515625,-6.602020263671875,5.87677001953125,18399413.91941392,121832454.2124542,72075384.61538461,85.020775,1.0,1.0,2.0,1.0,1.0,50.0,,0 days 00:00:00
2023-11-16 11:33:07.142,0.7233276,0.0,0.64654225,1.2545475,0.49240938,0.0,-0.06581697,0.6655744,0.9219405,0.0,0.4667073,0.95504975,0.9769846,0.0,0.54832053,0.86085737,0.84907925,0.0,0.07455779,0.422248,797.8022,566.1172,799.41394,775.2381,698.2784,0.0,0.0,0.378173828125,0.134521484375,0.9136962890625,4.254302978515625,-6.602020263671875,5.87677001953125,18399413.91941392,121832454.2124542,72075384.61538461,85.020775,1.0,1.0,2.0,1.0,1.0,50.0,,0 days 00:00:00.001000
2023-11-16 11:33:07.182,0.7233276,0.0,0.64654225,1.2545475,0.49240938,0.0,-0.06581697,0.6655744,0.9219405,0.0,0.4667073,0.95504975,0.9769846,0.0,0.54832053,0.86085737,0.84907925,0.0,0.07455779,0.422248,788.93774,552.8205,794.9817,774.83514,727.6923,0.0,0.0,0.38690185546875,0.1331787109375,0.91668701171875,3.192596435546875,-3.910369873046875,6.557159423828125,18436483.516483516,121858241.75824176,72059267.39926739,85.80734,1.0,1.0,2.0,1.0,1.0,50.0,,0 days 00:00:00.040000
2023-11-16 11:33:07.183,0.7233276,0.0,0.64654225,1.2545475,0.49240938,0.0,-0.06581697,0.6655744,0.9219405,0.0,0.4667073,0.95504975,0.9769846,0.0,0.54832053,0.86085737,0.84907925,0.0,0.07455779,0.422248,799.011,246.19048,787.72894,781.28204,771.2088,0.0,0.0,0.38690185546875,0.1331787109375,0.91668701171875,3.192596435546875,-3.910369873046875,6.557159423828125,18436483.516483516,121858241.75824176,72059267.39926739,85.80734,1.0,1.0,2.0,1.0,1.0,50.0,,0 days 00:00:00.001000
2023-11-16 11:33:07.184,0.7233276,0.0,0.64654225,1.2545475,0.49240938,0.0,-0.06581697,0.6655744,0.9219405,0.0,0.4667073,0.95504975,0.9769846,0.0,0.54832053,0.86085737,0.84907925,0.0,0.07455779,0.422248,792.1612,265.93405,790.14655,775.2381,736.55676,0.0,0.0,0.38690185546875,0.1331787109375,0.91668701171875,3.192596435546875,-3.910369873046875,6.557159423828125,18436483.516483516,121858241.75824176,72059267.39926739,85.80734,1.0,1.0,2.0,1.0,1.0,50.0,,0 days 00:00:00.001000
2023-11-16 11:33:07.184,0.7233276,0.0,0.64654225,1.2545475,0.49240938,0.0,-0.06581697,0.6655744,0.9219405,0.0,0.4667073,0.95504975,0.9769846,0.0,0.54832053,0.86085737,0.84907925,0.0,0.07455779,0.422248,790.9524,485.53113,797.8022,773.22345,698.2784,0.0,0.0,0.38690185546875,0.1331787109375,0.91668701171875,3.192596435546875,-3.910369873046875,6.557159423828125,18436483.516483516,121858241.75824176,72059267.39926739,85.80734,1.0,1.0,2.0,1.0,1.0,50.0,,0 days 00:00:00
2023-11-16 11:33:07.185,0.7233276,0.0,0.64654225,1.2545475,0.49240938,0.0,-0.06581697,0.6655744,0.9219405,0.0,0.4667073,0.95504975,0.9769846,0.0,0.54832053,0.86085737,0.84907925,0.0,0.07455779,0.422248,794.17584,451.28204,801.02563,775.64105,740.989,0.0,0.0,0.38690185546875,0.1331787109375,0.91668701171875,3.192596435546875,-3.910369873046875,6.557159423828125,18436483.516483516,121858241.75824176,72059267.39926739,85.80734,1.0,1.0,2.0,1.0,1.0,50.0,,0 days 00:00:00.001000
2023-11-16 11:33:07.185,0.7233276,0.0,0.64654225,1.2545475,0.49240938,0.0,-0.06581697,0.6655744,0.9219405,0.0,0.4667073,0.95504975,0.9769846,0.0,0.54832053,0.86085737,0.84907925,0.0,0.07455779,0.422248,800.2198,130.14651,790.54944,793.7729,893.2967,0.0,0.0,0.38690185546875,0.1331787109375,0.91668701171875,3.192596435546875,-3.910369873046875,6.557159423828125,18436483.516483516,121858241.75824176,72059267.39926739,85.80734,1.0,1.0,2.0,1.0,1.0,50.0,,0 days 00:00:00
2023-11-16 11:33:07.186,0.7233276,0.0,0.64654225,1.2545475,0.49240938,0.0,-0.06581697,0.6655744,0.9219405,0.0,0.4667073,0.95504975,0.9769846,0.0,0.54832053,0.86085737,0.84907925,0.0,0.07455779,0.422248,806.26373,0.0,790.14655,793.36993,902.5641,0.0,0.0,0.38690185546875,0.1331787109375,0.91668701171875,3.192596435546875,-3.910369873046875,6.557159423828125,18436483.516483516,121858241.75824176,72059267.39926739,85.80734,1.0,1.0,2.0,1.0,1.0,50.0,,0 days 00:00:00.001000
2023-11-16 11:33:07.186,0.7233276,0.0,0.64654225,1.2545475,0.49240938,0.0,-0.06581697,0.6655744,0.9219405,0.0,0.4667073,0.95504975,0.9769846,0.0,0.54832053,0.86085737,0.84907925,0.0,0.07455779,0.422248,800.6227,82.1978,794.9817,785.31134,790.54944,0.0,0.0,0.38690185546875,0.1331787109375,0.91668701171875,3.192596435546875,-3.910369873046875,6.557159423828125,18436483.516483516,121858241.75824176,72059267.39926739,85.80734,1.0,1.0,2.0,1.0,1.0,50.0,,0 days 00:00:00
2023-11-16 11:33:07.187,0.7233276,0.0,0.64654225,1.2545475,0.49240938,0.0,-0.06581697,0.6655744,0.9219405,0.0,0.4667073,0.95504975,0.9769846,0.0,0.54832053,0.86085737,0.84907925,0.0,0.07455779,0.422248,805.4579,86.227104,795.78754,786.9231,838.9011,0.0,0.0,0.38690185546875,0.1331787109375,0.91668701171875,3.192596435546875,-3.910369873046875,6.557159423828125,18436483.516483516,121858241.75824176,72059267.39926739,85.80734,1.0,1.0,2.0,1.0,1.0,50.0,,0 days 00:00:00.001000
2023-11-16 11:33:07.187,0.7233276,0.0,0.64654225,1.2545475,0.49240938,0.0,-0.06581697,0.6655744,0.9219405,0.0,0.4667073,0.95504975,0.9769846,0.0,0.54832053,0.86085737,0.84907925,0.0,0.07455779,0.422248,819.15753,20.952381,779.2674,811.9048,1042.7839,0.0,0.0,0.38690185546875,0.1331787109375,0.91668701171875,3.192596435546875,-3.910369873046875,6.557159423828125,18436483.516483516,121858241.75824176,72059267.39926739,85.80734,1.0,1.0,2.0,1.0,1.0,50.0,,0 days 00:00:00
2023-11-16 11:33:07.188,0.7233276,0.0,0.64654225,1.2545475,0.49240938,0.0,-0.06581697,0.6655744,0.9219405,0.0,0.4667073,0.95504975,0.9769846,0.0,0.54832053,0.86085737,0.84907925,0.0,0.07455779,0.422248,812.71063,0.0,772.4176,821.5751,1120.5494,0.0,0.0,0.38690185546875,0.1331787109375,0.91668701171875,3.192596435546875,-3.910369873046875,6.557159423828125,18436483.516483516,121858241.75824176,72059267.39926739,85.80734,1.0,1.0,2.0,1.0,1.0,50.0,,0 days 00:00:00.001000
2023-11-16 11:33:07.188,0.7233276,0.0,0.64654225,1.2545475,0.49240938,0.0,-0.06581697,0.6655744,0.9219405,0.0,0.4667073,0.95504975,0.9769846,0.0,0.54832053,0.86085737,0.84907925,0.0,0.07455779,0.422248,767.5824,309.8535,803.44324,785.31134,843.3333,0.0,0.0,0.38690185546875,0.1331787109375,0.91668701171875,3.192596435546875,-3.910369873046875,6.557159423828125,18436483.516483516,121858241.75824176,72059267.39926739,85.80734,1.0,1.0,2.0,1.0,1.0,50.0,,0 days 00:00:00
2023-11-16 11:33:07.209,0.7233276,0.0,0.64654225,1.2545475,0.49240938,0.0,-0.06581697,0.6655744,0.9219405,0.0,0.4667073,0.95504975,0.9769846,0.0,0.54832053,0.86085737,0.84907925,0.0,0.07455779,0.422248,763.1502,422.67398,801.8315,786.9231,740.18317,0.0,0.0,0.38555908203125,0.1295166015625,0.91461181640625,3.21502685546875,-4.508514404296875,8.65814208984375,18436483.516483516,121858241.75824176,72059267.39926739,85.80734,1.0,1.0,2.0,1.0,1.0,50.0,,0 days 00:00:00.021000
2023-11-16 11:33:07.209,0.7233276,0.0,0.64654225,1.2545475,0.49240938,0.0,-0.06581697,0.6655744,0.9219405,0.0,0.4667073,0.95504975,0.9769846,0.0,0.54832053,0.86085737,0.84907925,0.0,0.07455779,0.422248,783.69965,219.59708,790.54944,796.5934,855.0183,0.0,0.0,0.38555908203125,0.1295166015625,0.91461181640625,3.21502685546875,-4.508514404296875,8.65814208984375,18436483.516483516,121858241.75824176,72059267.39926739,85.80734,1.0,1.0,2.0,1.0,1.0,50.0,,0 days 00:00:00
2023-11-16 11:33:07.209,0.7233276,0.0,0.64654225,1.2545475,0.49240938,0.0,-0.06581697,0.6655744,0.9219405,0.0,0.4667073,0.95504975,0.9769846,0.0,0.54832053,0.86085737,0.84907925,0.0,0.07455779,0.422248,781.685,477.87546,803.8461,786.1172,844.1392,0.0,0.0,0.38555908203125,0.1295166015625,0.91461181640625,3.21502685546875,-4.508514404296875,8.65814208984375,18436483.516483516,121858241.75824176,72059267.39926739,85.80734,1.0,1.0,2.0,1.0,1.0,50.0,,0 days 00:00:00
2023-11-16 11:33:07.210,0.7233276,0.0,0.64654225,1.2545475,0.49240938,0.0,-0.06581697,0.6655744,0.9219405,0.0,0.4667073,0.95504975,0.9769846,0.0,0.54832053,0.86085737,0.84907925,0.0,0.07455779,0.422248,802.6374,613.663,803.0403,785.7143,799.011,0.0,0.0,0.38555908203125,0.1295166015625,0.91461181640625,3.21502685546875,-4.508514404296875,8.65814208984375,18436483.516483516,121858241.75824176,72059267.39926739,85.80734,1.0,1.0,2.0,1.0,1.0,50.0,,0 days 00:00:00.001000
2023-11-16 11:33:07.210,0.7233276,0.0,0.64654225,1.2545475,0.49240938,0.0,-0.06581697,0.6655744,0.9219405,0.0,0.4667073,0.95504975,0.9769846,0.0,0.54832053,0.86085737,0.84907925,0.0,0.07455779,0.422248,815.5311,362.23444,793.7729,792.5641,769.19415,0.0,0.0,0.38555908203125,0.1295166015625,0.91461181640625,3.21502685546875,-4.508514404296875,8.65814208984375,18436483.516483516,121858241.75824176,72059267.39926739,85.80734,1.0,1.0,2.0,1.0,1.0,50.0,,0 days 00:00:00
2023-11-16 11:33:07.210,0.7233276,0.0,0.64654225,1.2545475,0.49240938,0.0,-0.06581697,0.6655744,0.9219405,0.0,0.4667073,0.95504975,0.9769846,0.0,0.54832053,0.86085737,0.84907925,0.0,0.07455779,0.422248,804.2491,43.516483,788.93774,809.0842,805.05493,0.0,0.0,0.38555908203125,0.1295166015625,0.91461181640625,3.21502685546875,-4.508514404296875,8.65814208984375,18436483.516483516,121858241.75824176,72059267.39926739,85.80734,1.0,1.0,2.0,1.0,1.0,50.0,,0 days 00:00:00
2023-11-16 11:33:07.210,0.7233276,0.0,0.64654225,1.2545475,0.49240938,0.0,-0.06581697,0.6655744,0.9219405,0.0,0.4667073,0.95504975,0.9769846,0.0,0.54832053,0.86085737,0.84907925,0.0,0.07455779,0.422248,794.17584,58.424908,790.54944,806.26373,840.5128,0.0,0.0,0.38555908203125,0.1295166015625,0.91461181640625,3.21502685546875,-4.508514404296875,8.65814208984375,18436483.516483516,121858241.75824176,72059267.39926739,85.80734,1.0,1.0,2.0,1.0,1.0,50.0,,0 days 00:00:00
2023-11-16 11:33:07.211,0.7630643,0.0,0.6385552,1.2470654,0.52116746,0.0,-0.06059844,0.64003795,0.9257711,0.0,0.45539668,0.9532393,0.9661176,0.0,0.5448934,0.8836209,0.83689886,0.0,0.061154995,0.42222494,790.54944,347.32602,795.38464,785.31134,758.315,0.0,0.0,0.38555908203125,0.1295166015625,0.91461181640625,3.21502685546875,-4.508514404296875,8.65814208984375,18436483.516483516,121858241.75824176,72059267.39926739,85.80734,1.0,1.0,2.0,1.0,1.0,50.0,,0 days 00:00:00.001000
2023-11-16 11:33:07.212,0.7630643,0.0,0.6385552,1.2470654,0.52116746,0.0,-0.06059844,0.64003795,0.9257711,0.0,0.45539668,0.9532393,0.9661176,0.0,0.5448934,0.8836209,0.83689886,0.0,0.061154995,0.42222494,794.17584,286.48352,785.7143,796.1905,726.4835,0.0,0.0,0.38555908203125,0.1295166015625,0.91461181640625,3.21502685546875,-4.508514404296875,8.65814208984375,18436483.516483516,121858241.75824176,72059267.39926739,85.80734,1.0,1.0,2.0,1.0,1.0,50.0,,0 days 00:00:00.001000
2023-11-16 11:33:07.212,0.7630643,0.0,0.6385552,1.2470654,0.52116746,0.0,-0.06059844,0.64003795,0.9257711,0.0,0.45539668,0.9532393,0.9661176,0.0,0.5448934,0.8836209,0.83689886,0.0,0.061154995,0.42222494,809.89014,0.0,776.04395,817.9487,926.337,0.0,0.0,0.38555908203125,0.1295166015625,0.91461181640625,3.21502685546875,-4.508514404296875,8.65814208984375,18436483.516483516,121858241.75824176,72059267.39926739,85.80734,1.0,1.0,2.0,1.0,1.0,50.0,,0 days 00:00:00
2023-11-16 11:33:07.212,0.7630643,0.0,0.6385552,1.2470654,0.52116746,0.0,-0.06059844,0.64003795,0.9257711,0.0,0.45539668,0.9532393,0.9661176,0.0,0.5448934,0.8836209,0.83689886,0.0,0.061154995,0.42222494,791.75824,96.7033,791.75824,792.96704,853.00366,0.0,0.0,0.38555908203125,0.1295166015625,0.91461181640625,3.21502685546875,-4.508514404296875,8.65814208984375,18436483.516483516,121858241.75824176,72059267.39926739,85.80734,1.0,1.0,2.0,1.0,1.0,50.0,,0 days 00:00:00
2023-11-16 11:33:07.213,0.7630643,0.0,0.6385552,1.2470654,0.52116746,0.0,-0.06059844,0.64003795,0.9257711,0.0,0.45539668,0.9532393,0.9661176,0.0,0.5448934,0.8836209,0.83689886,0.0,0.061154995,0.42222494,778.86444,413.00366,795.78754,772.8205,746.2271,0.0,0.0,0.38555908203125,0.1295166015625,0.91461181640625,3.21502685546875,-4.508514404296875,8.65814208984375,18436483.516483516,121858241.75824176,72059267.39926739,85.80734,1.0,1.0,2.0,1.0,1.0,50.0,,0 days 00:00:00.001000
2023-11-16 11:33:07.283,0.7630643,0.0,0.6385552,1.2470654,0.52116746,0.0,-0.06059844,0.64003795,0.9257711,0.0,0.45539668,0.9532393,0.9661176,0.0,0.5448934,0.8836209,0.83689886,0.0,0.061154995,0.42222494,803.44324,303.00366,788.93774,792.1612,841.31866,0.0,0.0,0.35723876953125,0.115478515625,0.91473388671875,2.863616943359375,-3.1103515625,5.84686279296875,18567032.967032965,121852600.73260072,72070549.45054945,86.5479,1.0,1.0,2.0,1.0,1.0,50.0,,0 days 00:00:00.070000
2023-11-16 11:33:07.283,0.7630643,0.0,0.6385552,1.2470654,0.52116746,0.0,-0.06059844,0.64003795,0.9257711,0.0,0.45539668,0.9532393,0.9661176,0.0,0.5448934,0.8836209,0.83689886,0.0,0.061154995,0.42222494,798.20514,200.65935,791.75824,792.5641,826.4103,0.0,0.0,0.35723876953125,0.115478515625,0.91473388671875,2.863616943359375,-3.1103515625,5.84686279296875,18567032.967032965,121852600.73260072,72070549.45054945,86.5479,1.0,1.0,2.0,1.0,1.0,50.0,,0 days 00:00:00
2023-11-16 11:33:07.284,0.7630643,0.0,0.6385552,1.2470654,0.52116746,0.0,-0.06059844,0.64003795,0.9257711,0.0,0.45539668,0.9532393,0.9661176,0.0,0.5448934,0.8836209,0.83689886,0.0,0.061154995,0.42222494,795.78754,412.60074,800.6227,779.67035,732.52747,0.0,0.0,0.35723876953125,0.115478515625,0.91473388671875,2.863616943359375,-3.1103515625,5.84686279296875,18567032.967032965,121852600.73260072,72070549.45054945,86.5479,1.0,1.0,2.0,1.0,1.0,50.0,,0 days 00:00:00.001000
2023-11-16 11:33:07.284,0.7630643,0.0,0.6385552,1.2470654,0.52116746,0.0,-0.06059844,0.64003795,0.9257711,0.0,0.45539668,0.9532393,0.9661176,0.0,0.5448934,0.8836209,0.83689886,0.0,0.061154995,0.42222494,800.2198,424.68866,796.1905,786.9231,737.3626,0.0,0.0,0.35723876953125,0.115478515625,0.91473388671875,2.863616943359375,-3.1103515625,5.84686279296875,18567032.967032965,121852600.73260072,72070549.45054945,86.5479,1.0,1.0,2.0,1.0,1.0,50.0,,0 days 00:00:00
2023-11-16 11:33:07.285,0.7630643,0.0,0.6385552,1.2470654,0.52116746,0.0,-0.06059844,0.64003795,0.9257711,0.0,0.45539668,0.9532393,0.9661176,0.0,0.5448934,0.8836209,0.83689886,0.0,0.061154995,0.42222494,779.67035,130.95238,789.34064,793.7729,756.30035,0.0,0.0,0.35723876953125,0.115478515625,0.91473388671875,2.863616943359375,-3.1103515625,5.84686279296875,18567032.967032965,121852600.73260072,72070549.45054945,86.5479,1.0,1.0,2.0,1.0,1.0,50.0,,0 days 00:00:00.001000
2023-11-16 11:33:07.285,0.7630643,0.0,0.6385552,1.2470654,0.52116746,0.0,-0.06059844,0.64003795,0.9257711,0.0,0.45539668,0.9532393,0.9661176,0.0,0.5448934,0.8836209,0.83689886,0.0,0.061154995,0.42222494,781.685,13.699634,794.57874,793.7729,814.7253,0.0,0.0,0.35723876953125,0.115478515625,0.91473388671875,2.863616943359375,-3.1103515625,5.84686279296875,18567032.967032965,121852600.73260072,72070549.45054945,86.5479,1.0,1.0,2.0,1.0,1.0,50.0,,0 days 00:00:00
2023-11-16 11:33:07.286,0.7630643,0.0,0.6385552,1.2470654,0.52116746,0.0,-0.06059844,0.64003795,0.9257711,0.0,0.45539668,0.9532393,0.9661176,0.0,0.5448934,0.8836209,0.83689886,0.0,0.061154995,0.42222494,793.7729,51.978024,797.3993,794.57874,862.674,0.0,0.0,0.35723876953125,0.115478515625,0.91473388671875,2.863616943359375,-3.1103515625,5.84686279296875,18567032.967032965,121852600.73260072,72070549.45054945,86.5479,1.0,1.0,2.0,1.0,1.0,50.0,,0 days 00:00:00.001000
2023-11-16 11:33:07.286,0.7630643,0.0,0.6385552,1.2470654,0.52116746,0.0,-0.06059844,0.64003795,0.9257711,0.0,0.45539668,0.9532393,0.9661176,0.0,0.5448934,0.8836209,0.83689886,0.0,0.061154995,0.42222494,786.1172,23.772894,797.3993,792.5641,826.8132,0.0,0.0,0.35723876953125,0.115478515625,0.91473388671875,2.863616943359375,-3.1103515625,5.84686279296875,18567032.967032965,121852600.73260072,72070549.45054945,86.5479,1.0,1.0,2.0,1.0,1.0,50.0,,0 days 00:00:00
2023-11-16 11:33:07.287,0.7630643,0.0,0.6385552,1.2470654,0.52116746,0.0,-0.06059844,0.64003795,0.9257711,0.0,0.45539668,0.9532393,0.9661176,0.0,0.5448934,0.8836209,0.83689886,0.0,0.061154995,0.42222494,791.75824,3.6263735,780.87915,807.0696,1021.4286,0.0,0.0,0.35723876953125,0.115478515625,0.91473388671875,2.863616943359375,-3.1103515625,5.84686279296875,18567032.967032965,121852600.73260072,72070549.45054945,86.5479,1.0,1.0,2.0,1.0,1.0,50.0,,0 days 00:00:00.001000
2023-11-16 11:33:07.287,0.7630643,0.0,0.6385552,1.2470654,0.52116746,0.0,-0.06059844,0.64003795,0.9257711,0.0,0.45539668,0.9532393,0.9661176,0.0,0.5448934,0.8836209,0.83689886,0.0,0.061154995,0.42222494,806.6667,0.8058608,779.67035,823.9927,1114.9084,0.0,0.0,0.35723876953125,0.115478515625,0.91473388671875,2.863616943359375,-3.1103515625,5.84686279296875,18567032.967032965,121852600.73260072,72070549.45054945,86.5479,1.0,1.0,2.0,1.0,1.0,50.0,,0 days 00:00:00
2023-11-16 11:33:07.288,0.7630643,0.0,0.6385552,1.2470654,0.52116746,0.0,-0.06059844,0.64003795,0.9257711,0.0,0.45539668,0.9532393,0.9661176,0.0,0.5448934,0.8836209,0.83689886,0.0,0.061154995,0.42222494,798.60803,310.2564,804.2491,794.17584,816.337,0.0,0.0,0.35723876953125,0.115478515625,0.91473388671875,2.863616943359375,-3.1103515625,5.84686279296875,18567032.967032965,121852600.73260072,72070549.45054945,86.5479,1.0,1.0,2.0,1.0,1.0,50.0,,0 days 00:00:00.001000
2023-11-16 11:33:07.288,0.7630643,0.0,0.6385552,1.2470654,0.52116746,0.0,-0.06059844,0.64003795,0.9257711,0.0,0.45539668,0.9532393,0.9661176,0.0,0.5448934,0.8836209,0.83689886,0.0,0.061154995,0.42222494,812.3077,403.33334,798.60803,792.96704,715.2015,0.0,0.0,0.35723876953125,0.115478515625,0.91473388671875,2.863616943359375,-3.1103515625,5.84686279296875,18567032.967032965,121852600.73260072,72070549.45054945,86.5479,1.0,1.0,2.0,1.0,1.0,50.0,,0 days 00:00:00
2023-11-16 11:33:07.332,0.7630643,0.0,0.6385552,1.2470654,0.52116746,0.0,-0.06059844,0.64003795,0.9257711,0.0,0.45539668,0.9532393,0.9661176,0.0,0.5448934,0.8836209,0.83689886,0.0,0.061154995,0.42222494,801.4286,202.27106,799.011,795.78754,817.9487,0.0,0.0,0.37811279296875,0.12322998046875,0.9090576171875,4.14215087890625,-7.716064453125,1.592559814453125,18567032.967032965,121852600.73260072,72070549.45054945,86.5479,1.0,1.0,2.0,1.0,1.0,50.0,,0 days 00:00:00.044000
2023-11-16 11:33:07.332,0.7630643,0.0,0.6385552,1.2470654,0.52116746,0.0,-0.06059844,0.64003795,0.9257711,0.0,0.45539668,0.9532393,0.9661176,0.0,0.5448934,0.8836209,0.83689886,0.0,0.061154995,0.42222494,773.6264,150.29305,807.47253,774.43225,810.696,0.0,0.0,0.37811279296875,0.12322998046875,0.9090576171875,4.14215087890625,-7.716064453125,1.592559814453125,18567032.967032965,121852600.73260072,72070549.45054945,86.5479,1.0,1.0,2.0,1.0,1.0,50.0,,0 days 00:00:00
2023-11-16 11:33:07.333,0.7630643,0.0,0.6385552,1.2470654,0.52116746,0.0,-0.06059844,0.64003795,0.9257711,0.0,0.45539668,0.9532393,0.9661176,0.0,0.5448934,0.8836209,0.83689886,0.0,0.061154995,0.42222494,794.17584,298.1685,809.4872,769.19415,730.9158,0.0,0.0,0.37811279296875,0.12322998046875,0.9090576171875,4.14215087890625,-7.716064453125,1.592559814453125,18567032.967032965,121852600.73260072,72070549.45054945,86.5479,1.0,1.0,2.0,1.0,1.0,50.0,,0 days 00:00:00.001000
2023-11-16 11:33:07.333,0.7630643,0.0,0.6385552,1.2470654,0.52116746,0.0,-0.06059844,0.64003795,0.9257711,0.0,0.45539668,0.9532393,0.9661176,0.0,0.5448934,0.8836209,0.83689886,0.0,0.061154995,0.42222494,806.26373,294.94507,805.8608,791.75824,721.6484,0.0,0.0,0.37811279296875,0.12322998046875,0.9090576171875,4.14215087890625,-7.716064453125,1.592559814453125,18567032.967032965,121852600.73260072,72070549.45054945,86.5479,1.0,1.0,2.0,1.0,1.0,50.0,,0 days 00:00:00
2023-11-16 11:33:07.334,0.7630643,0.0,0.6385552,1.2470654,0.52116746,0.0,-0.06059844,0.64003795,0.9257711,0.0,0.45539668,0.9532393,0.9661176,0.0,0.5448934,0.8836209,0.83689886,0.0,0.061154995,0.42222494,782.0879,112.41758,803.0403,802.6374,774.83514,0.0,0.0,0.37811279296875,0.12322998046875,0.9090576171875,4.14215087890625,-7.716064453125,1.592559814453125,18567032.967032965,121852600.73260072,72070549.45054945,86.5479,1.0,1.0,2.0,1.0,1.0,50.0,,0 days 00:00:00.001000
2023-11-16 11:33:07.334,0.7630643,0.0,0.6385552,1.2470654,0.52116746,0.0,-0.06059844,0.64003795,0.9257711,0.0,0.45539668,0.9532393,0.9661176,0.0,0.5448934,0.8836209,0.83689886,0.0,0.061154995,0.42222494,771.2088,41.0989,805.8608,789.7436,728.49817,0.0,0.0,0.37811279296875,0.12322998046875,0.9090576171875,4.14215087890625,-7.716064453125,1.592559814453125,18567032.967032965,121852600.73260072,72070549.45054945,86.5479,1.0,1.0,2.0,1.0,1.0,50.0,,0 days 00:00:00
2023-11-16 11:33:07.335,0.7630643,0.0,0.6385552,1.2470654,0.52116746,0.0,-0.06059844,0.64003795,0.9257711,0.0,0.45539668,0.9532393,0.9661176,0.0,0.5448934,0.8836209,0.83689886,0.0,0.061154995,0.42222494,776.4469,0.0,803.44324,784.10254,732.1245,0.0,0.0,0.37811279296875,0.12322998046875,0.9090576171875,4.14215087890625,-7.716064453125,1.592559814453125,18567032.967032965,121852600.73260072,72070549.45054945,86.5479,1.0,1.0,2.0,1.0,1.0,50.0,,0 days 00:00:00.001000
2023-11-16 11:33:07.335,0.7630643,0.0,0.6385552,1.2470654,0.52116746,0.0,-0.06059844,0.64003795,0.9257711,0.0,0.45539668,0.9532393,0.9661176,0.0,0.5448934,0.8836209,0.83689886,0.0,0.061154995,0.42222494,785.7143,17.326008,798.20514,789.34064,767.98535,0.0,0.0,0.37811279296875,0.12322998046875,0.9090576171875,4.14215087890625,-7.716064453125,1.592559814453125,18567032.967032965,121852600.73260072,72070549.45054945,86.5479,1.0,1.0,2.0,1.0,1.0,50.0,,0 days 00:00:00
2023-11-16 11:33:07.335,0.7630643,0.0,0.6385552,1.2470654,0.52116746,0.0,-0.06059844,0.64003795,0.9257711,0.0,0.45539668,0.9532393,0.9661176,0.0,0.5448934,0.8836209,0.83689886,0.0,0.061154995,0.42222494,802.23444,0.0,778.0586,816.7399,914.65204,0.0,0.0,0.37811279296875,0.12322998046875,0.9090576171875,4.14215087890625,-7.716064453125,1.592559814453125,18567032.967032965,121852600.73260072,72070549.45054945,86.5479,1.0,1.0,2.0,1.0,1.0,50.0,,0 days 00:00:00
2023-11-16 11:33:07.336,0.8230362,0.0,0.6209118,1.224493,0.57013434,0.0,-0.051485363,0.6372082,0.91633713,0.0,0.42744052,0.9608986,0.9475204,0.0,0.53985256,0.9145517,0.82014304,0.0,0.06073579,0.43805617,805.05493,145.45787,793.36993,800.2198,874.7619,0.0,0.0,0.37811279296875,0.12322998046875,0.9090576171875,4.14215087890625,-7.716064453125,1.592559814453125,18567032.967032965,121852600.73260072,72070549.45054945,86.5479,1.0,1.0,2.0,1.0,1.0,50.0,,0 days 00:00:00.001000
2023-11-16 11:33:07.338,0.8230362,0.0,0.6209118,1.224493,0.57013434,0.0,-0.051485363,0.6372082,0.91633713,0.0,0.42744052,0.9608986,0.9475204,0.0,0.53985256,0.9145517,0.82014304,0.0,0.06073579,0.43805617,789.7436,403.33334,811.50183,778.0586,718.8278,0.0,0.0,0.37811279296875,0.12322998046875,0.9090576171875,4.14215087890625,-7.716064453125,1.592559814453125,18567032.967032965,121852600.73260072,72070549.45054945,86.5479,1.0,1.0,2.0,1.0,1.0,50.0,,0 days 00:00:00.002000
2023-11-16 11:33:07.338,0.8230362,0.0,0.6209118,1.224493,0.57013434,0.0,-0.051485363,0.6372082,0.91633713,0.0,0.42744052,0.9608986,0.9475204,0.0,0.53985256,0.9145517,0.82014304,0.0,0.06073579,0.43805617,792.1612,253.84616,796.99634,794.57874,741.39197,0.0,0.0,0.37811279296875,0.12322998046875,0.9090576171875,4.14215087890625,-7.716064453125,1.592559814453125,18567032.967032965,121852600.73260072,72070549.45054945,86.5479,1.0,1.0,2.0,1.0,1.0,50.0,,0 days 00:00:00
2023-11-16 11:33:07.379,0.8230362,0.0,0.6209118,1.224493,0.57013434,0.0,-0.051485363,0.6372082,0.91633713,0.0,0.42744052,0.9608986,0.9475204,0.0,0.53985256,0.9145517,0.82014304,0.0,0.06073579,0.43805617,786.52014,286.48352,798.60803,792.96704,758.71796,0.0,0.0,0.37811279296875,0.12322998046875,0.9090576171875,4.14215087890625,-7.716064453125,1.592559814453125,18634725.274725273,121994432.23443224,72063296.7032967,87.24511,1.0,1.0,2.0,1.0,1.0,50.0,,0 days 00:00:00.041000
2023-11-16 11:33:07.380,0.8230362,0.0,0.6209118,1.224493,0.57013434,0.0,-0.051485363,0.6372082,0.91633713,0.0,0.42744052,0.9608986,0.9475204,0.0,0.53985256,0.9145517,0.82014304,0.0,0.06073579,0.43805617,783.69965,464.9817,803.0403,782.49084,725.6777,0.0,0.0,0.37811279296875,0.12322998046875,0.9090576171875,4.14215087890625,-7.716064453125,1.592559814453125,18634725.274725273,121994432.23443224,72063296.7032967,87.24511,1.0,1.0,2.0,1.0,1.0,50.0,,0 days 00:00:00.001000
2023-11-16 11:33:07.380,0.8230362,0.0,0.6209118,1.224493,0.57013434,0.0,-0.051485363,0.6372082,0.91633713,0.0,0.42744052,0.9608986,0.9475204,0.0,0.53985256,0.9145517,0.82014304,0.0,0.06073579,0.43805617,798.60803,408.1685,796.99634,783.69965,699.0842,0.0,0.0,0.37811279296875,0.12322998046875,0.9090576171875,4.14215087890625,-7.716064453125,1.592559814453125,18634725.274725273,121994432.23443224,72063296.7032967,87.24511,1.0,1.0,2.0,1.0,1.0,50.0,,0 days 00:00:00
2023-11-16 11:33:07.381,0.8230362,0.0,0.6209118,1.224493,0.57013434,0.0,-0.051485363,0.6372082,0.91633713,0.0,0.42744052,0.9608986,0.9475204,0.0,0.53985256,0.9145517,0.82014304,0.0,0.06073579,0.43805617,802.6374,147.87546,788.93774,786.1172,828.4249,0.0,0.0,0.37811279296875,0.12322998046875,0.9090576171875,4.14215087890625,-7.716064453125,1.592559814453125,18634725.274725273,121994432.23443224,72063296.7032967,87.24511,1.0,1.0,2.0,1.0,1.0,50.0,,0 days 00:00:00.001000
2023-11-16 11:33:07.381,0.8230362,0.0,0.6209118,1.224493,0.57013434,0.0,-0.051485363,0.6372082,0.91633713,0.0,0.42744052,0.9608986,0.9475204,0.0,0.53985256,0.9145517,0.82014304,0.0,0.06073579,0.43805617,803.0403,45.531136,786.9231,778.86444,888.86444,0.0,0.0,0.37811279296875,0.12322998046875,0.9090576171875,4.14215087890625,-7.716064453125,1.592559814453125,18634725.274725273,121994432.23443224,72063296.7032967,87.24511,1.0,1.0,2.0,1.0,1.0,50.0,,0 days 00:00:00
2023-11-16 11:33:07.382,0.8230362,0.0,0.6209118,1.224493,0.57013434,0.0,-0.051485363,0.6372082,0.91633713,0.0,0.42744052,0.9608986,0.9475204,0.0,0.53985256,0.9145517,0.82014304,0.0,0.06073579,0.43805617,796.99634,46.739925,785.7143,776.4469,778.46155,0.0,0.0,0.37811279296875,0.12322998046875,0.9090576171875,4.14215087890625,-7.716064453125,1.592559814453125,18634725.274725273,121994432.23443224,72063296.7032967,87.24511,1.0,1.0,2.0,1.0,1.0,50.0,,0 days 00:00:00.001000
2023-11-16 11:33:07.382,0.8230362,0.0,0.6209118,1.224493,0.57013434,0.0,-0.051485363,0.6372082,0.91633713,0.0,0.42744052,0.9608986,0.9475204,0.0,0.53985256,0.9145517,0.82014304,0.0,0.06073579,0.43805617,801.8315,9.267399,786.9231,767.1795,739.7802,0.0,0.0,0.37811279296875,0.12322998046875,0.9090576171875,4.14215087890625,-7.716064453125,1.592559814453125,18634725.274725273,121994432.23443224,72063296.7032967,87.24511,1.0,1.0,2.0,1.0,1.0,50.0,,0 days 00:00:00
2023-11-16 11:33:07.383,0.8230362,0.0,0.6209118,1.224493,0.57013434,0.0,-0.051485363,0.6372082,0.91633713,0.0,0.42744052,0.9608986,0.9475204,0.0,0.53985256,0.9145517,0.82014304,0.0,0.06073579,0.43805617,819.15753,15.311356,773.22345,798.20514,938.8278,0.0,0.0,0.37811279296875,0.12322998046875,0.9090576171875,4.14215087890625,-7.716064453125,1.592559814453125,18634725.274725273,121994432.23443224,72063296.7032967,87.24511,1.0,1.0,2.0,1.0,1.0,50.0,,0 days 00:00:00.001000
2023-11-16 11:33:07.383,0.8230362,0.0,0.6209118,1.224493,0.57013434,0.0,-0.051485363,0.6372082,0.91633713,0.0,0.42744052,0.9608986,0.9475204,0.0,0.53985256,0.9145517,0.82014304,0.0,0.06073579,0.43805617,817.9487,0.0,766.3736,817.9487,1122.967,0.0,0.0,0.37811279296875,0.12322998046875,0.9090576171875,4.14215087890625,-7.716064453125,1.592559814453125,18634725.274725273,121994432.23443224,72063296.7032967,87.24511,1.0,1.0,2.0,1.0,1.0,50.0,,0 days 00:00:00
2023-11-16 11:33:07.384,0.8230362,0.0,0.6209118,1.224493,0.57013434,0.0,-0.051485363,0.6372082,0.91633713,0.0,0.42744052,0.9608986,0.9475204,0.0,0.53985256,0.9145517,0.82014304,0.0,0.06073579,0.43805617,801.8315,185.75092,803.0403,775.2381,876.3736,0.0,0.0,0.37811279296875,0.12322998046875,0.9090576171875,4.14215087890625,-7.716064453125,1.592559814453125,18634725.274725273,121994432.23443224,72063296.7032967,87.24511,1.0,1.0,2.0,1.0,1.0,50.0,,0 days 00:00:00.001000
2023-11-16 11:33:07.384,0.8230362,0.0,0.6209118,1.224493,0.57013434,0.0,-0.051485363,0.6372082,0.91633713,0.0,0.42744052,0.9608986,0.9475204,0.0,0.53985256,0.9145517,0.82014304,0.0,0.06073579,0.43805617,812.3077,326.37363,803.44324,767.98535,667.6557,0.0,0.0,0.37811279296875,0.12322998046875,0.9090576171875,4.14215087890625,-7.716064453125,1.592559814453125,18634725.274725273,121994432.23443224,72063296.7032967,87.24511,1.0,1.0,2.0,1.0,1.0,50.0,,0 days 00:00:00
2023-11-16 11:33:07.385,0.8230362,0.0,0.6209118,1.224493,0.57013434,0.0,-0.051485363,0.6372082,0.91633713,0.0,0.42744052,0.9608986,0.9475204,0.0,0.53985256,0.9145517,0.82014304,0.0,0.06073579,0.43805617,807.8755,179.30403,792.5641,781.685,710.7692,0.0,0.0,0.37811279296875,0.12322998046875,0.9090576171875,4.14215087890625,-7.716064453125,1.592559814453125,18634725.274725273,121994432.23443224,72063296.7032967,87.24511,1.0,1.0,2.0,1.0,1.0,50.0,,0 days 00:00:00.001000
2023-11-16 11:33:07.408,0.8230362,0.0,0.6209118,1.224493,0.57013434,0.0,-0.051485363,0.6372082,0.91633713,0.0,0.42744052,0.9608986,0.9475204,0.0,0.53985256,0.9145517,0.82014304,0.0,0.06073579,0.43805617,794.57874,340.07327,800.6227,776.8498,718.022,0.0,0.0,0.38983154296875,0.12225341796875,0.91082763671875,3.66363525390625,-8.71795654296875,-2.011260986328125,18634725.274725273,121994432.23443224,72063296.7032967,87.24511,1.0,1.0,2.0,1.0,1.0,50.0,,0 days 00:00:00.023000
2023-11-16 11:33:07.409,0.8230362,0.0,0.6209118,1.224493,0.57013434,0.0,-0.051485363,0.6372082,0.91633713,0.0,0.42744052,0.9608986,0.9475204,0.0,0.53985256,0.9145517,0.82014304,0.0,0.06073579,0.43805617,805.4579,424.68866,798.20514,780.87915,681.3553,0.0,0.0,0.38983154296875,0.12225341796875,0.91082763671875,3.66363525390625,-8.71795654296875,-2.011260986328125,18634725.274725273,121994432.23443224,72063296.7032967,87.24511,1.0,1.0,2.0,1.0,1.0,50.0,,0 days 00:00:00.001000
2023-11-16 11:33:07.409,0.8230362,0.0,0.6209118,1.224493,0.57013434,0.0,-0.051485363,0.6372082,0.91633713,0.0,0.42744052,0.9608986,0.9475204,0.0,0.53985256,0.9145517,0.82014304,0.0,0.06073579,0.43805617,812.71063,266.337,794.57874,782.49084,712.381,0.0,0.0,0.38983154296875,0.12225341796875,0.91082763671875,3.66363525390625,-8.71795654296875,-2.011260986328125,18634725.274725273,121994432.23443224,72063296.7032967,87.24511,1.0,1.0,2.0,1.0,1.0,50.0,,0 days 00:00:00
2023-11-16 11:33:07.409,0.8230362,0.0,0.6209118,1.224493,0.57013434,0.0,-0.051485363,0.6372082,0.91633713,0.0,0.42744052,0.9608986,0.9475204,0.0,0.53985256,0.9145517,0.82014304,0.0,0.06073579,0.43805617,805.8608,189.78021,786.9231,776.04395,763.95605,0.0,0.0,0.38983154296875,0.12225341796875,0.91082763671875,3.66363525390625,-8.71795654296875,-2.011260986328125,18634725.274725273,121994432.23443224,72063296.7032967,87.24511,1.0,1.0,2.0,1.0,1.0,50.0,,0 days 00:00:00
2023-11-16 11:33:07.410,0.8230362,0.0,0.6209118,1.224493,0.57013434,0.0,-0.051485363,0.6372082,0.91633713,0.0,0.42744052,0.9608986,0.9475204,0.0,0.53985256,0.9145517,0.82014304,0.0,0.06073579,0.43805617,798.60803,340.4762,786.1172,775.2381,745.42126,0.0,0.0,0.38983154296875,0.12225341796875,0.91082763671875,3.66363525390625,-8.71795654296875,-2.011260986328125,18634725.274725273,121994432.23443224,72063296.7032967,87.24511,1.0,1.0,2.0,1.0,1.0,50.0,,0 days 00:00:00.001000
2023-11-16 11:33:07.410,0.8230362,0.0,0.6209118,1.224493,0.57013434,0.0,-0.051485363,0.6372082,0.91633713,0.0,0.42744052,0.9608986,0.9475204,0.0,0.53985256,0.9145517,0.82014304,0.0,0.06073579,0.43805617,805.05493,170.43956,788.93774,786.9231,747.8388,0.0,0.0,0.38983154296875,0.12225341796875,0.91082763671875,3.66363525390625,-8.71795654296875,-2.011260986328125,18634725.274725273,121994432.23443224,72063296.7032967,87.24511,1.0,1.0,2.0,1.0,1.0,50.0,,0 days 00:00:00
2023-11-16 11:33:07.410,0.8230362,0.0,0.6209118,1.224493,0.57013434,0.0,-0.051485363,0.6372082,0.91633713,0.0,0.42744052,0.9608986,0.9475204,0.0,0.53985256,0.9145517,0.82014304,0.0,0.06073579,0.43805617,818.7546,0.0,784.10254,797.3993,828.022,0.0,0.0,0.38983154296875,0.12225341796875,0.91082763671875,3.66363525390625,-8.71795654296875,-2.011260986328125,18634725.274725273,121994432.23443224,72063296.7032967,87.24511,1.0,1.0,2.0,1.0,1.0,50.0,,0 days 00:00:00
2023-11-16 11:33:07.410,0.8230362,0.0,0.6209118,1.224493,0.57013434,0.0,-0.051485363,0.6372082,0.91633713,0.0,0.42744052,0.9608986,0.9475204,0.0,0.53985256,0.9145517,0.82014304,0.0,0.06073579,0.43805617,825.2015,3.6263735,779.67035,820.3663,1056.0806,0.0,0.0,0.38983154296875,0.12225341796875,0.91082763671875,3.66363525390625,-8.71795654296875,-2.011260986328125,18634725.274725273,121994432.23443224,72063296.7032967,87.24511,1.0,1.0,2.0,1.0,1.0,50.0,,0 days 00:00:00
2023-11-16 11:33:07.411,0.8230362,0.0,0.6209118,1.224493,0.57013434,0.0,-0.051485363,0.6372082,0.91633713,0.0,0.42744052,0.9608986,0.9475204,0.0,0.53985256,0.9145517,0.82014304,0.0,0.06073579,0.43805617,797.8022,304.21246,803.0403,792.1612,951.7216,0.0,0.0,0.38983154296875,0.12225341796875,0.91082763671875,3.66363525390625,-8.71795654296875,-2.011260986328125,18634725.274725273,121994432.23443224,72063296.7032967,87.24511,1.0,1.0,2.0,1.0,1.0,50.0,,0 days 00:00:00.001000
2023-11-16 11:33:07.411,0.8230362,0.0,0.6209118,1.224493,0.57013434,0.0,-0.051485363,0.6372082,0.91633713,0.0,0.42744052,0.9608986,0.9475204,0.0,0.53985256,0.9145517,0.82014304,0.0,0.06073579,0.43805617,787.326,515.7509,807.47253,776.8498,713.1868,0.0,0.0,0.38983154296875,0.12225341796875,0.91082763671875,3.66363525390625,-8.71795654296875,-2.011260986328125,18634725.274725273,121994432.23443224,72063296.7032967,87.24511,1.0,1.0,2.0,1.0,1.0,50.0,,0 days 00:00:00
2023-11-16 11:33:07.411,0.8230362,0.0,0.6209118,1.224493,0.57013434,0.0,-0.051485363,0.6372082,0.91633713,0.0,0.42744052,0.9608986,0.9475204,0.0,0.53985256,0.9145517,0.82014304,0.0,0.06073579,0.43805617,798.20514,274.79852,791.75824,794.57874,713.5897,0.0,0.0,0.38983154296875,0.12225341796875,0.91082763671875,3.66363525390625,-8.71795654296875,-2.011260986328125,18634725.274725273,121994432.23443224,72063296.7032967,87.24511,1.0,1.0,2.0,1.0,1.0,50.0,,0 days 00:00:00
2023-11-16 11:33:07.411,0.89414984,0.0,0.5908132,1.1935816,0.6314226,0.0,-0.0446823,0.661996,0.89406574,0.0,0.3936792,0.9849928,0.92101556,0.0,0.5361132,0.95106095,0.80075496,0.0,0.07892204,0.4798016,797.3993,285.27472,794.9817,781.685,785.7143,0.0,0.0,0.38983154296875,0.12225341796875,0.91082763671875,3.66363525390625,-8.71795654296875,-2.011260986328125,18634725.274725273,121994432.23443224,72063296.7032967,87.24511,1.0,1.0,2.0,1.0,1.0,50.0,,0 days 00:00:00
2023-11-16 11:33:07.468,0.89414984,0.0,0.5908132,1.1935816,0.6314226,0.0,-0.0446823,0.661996,0.89406574,0.0,0.3936792,0.9849928,0.92101556,0.0,0.5361132,0.95106095,0.80075496,0.0,0.07892204,0.4798016,788.1319,526.63007,804.65204,780.4762,804.65204,0.0,0.0,0.411865234375,0.12939453125,0.92022705078125,3.5589599609375,-2.609405517578125,1.981353759765625,18545274.725274723,122025054.94505496,72097948.71794872,87.90153,1.0,1.0,2.0,1.0,1.0,50.0,,0 days 00:00:00.057000
2023-11-16 11:33:07.469,0.89414984,0.0,0.5908132,1.1935816,0.6314226,0.0,-0.0446823,0.661996,0.89406574,0.0,0.3936792,0.9849928,0.92101556,0.0,0.5361132,0.95106095,0.80075496,0.0,0.07892204,0.4798016,791.75824,559.2674,803.8461,794.57874,800.6227,0.0,0.0,0.411865234375,0.12939453125,0.92022705078125,3.5589599609375,-2.609405517578125,1.981353759765625,18545274.725274723,122025054.94505496,72097948.71794872,87.90153,1.0,1.0,2.0,1.0,1.0,50.0,,0 days 00:00:00.001000
2023-11-16 11:33:07.470,0.89414984,0.0,0.5908132,1.1935816,0.6314226,0.0,-0.0446823,0.661996,0.89406574,0.0,0.3936792,0.9849928,0.92101556,0.0,0.5361132,0.95106095,0.80075496,0.0,0.07892204,0.4798016,816.337,264.32236,793.7729,799.41394,807.0696,0.0,0.0,0.411865234375,0.12939453125,0.92022705078125,3.5589599609375,-2.609405517578125,1.981353759765625,18545274.725274723,122025054.94505496,72097948.71794872,87.90153,1.0,1.0,2.0,1.0,1.0,50.0,,0 days 00:00:00.001000
2023-11-16 11:33:07.470,0.89414984,0.0,0.5908132,1.1935816,0.6314226,0.0,-0.0446823,0.661996,0.89406574,0.0,0.3936792,0.9849928,0.92101556,0.0,0.5361132,0.95106095,0.80075496,0.0,0.07892204,0.4798016,796.5934,330.0,795.38464,785.7143,770.80585,0.0,0.0,0.411865234375,0.12939453125,0.92022705078125,3.5589599609375,-2.609405517578125,1.981353759765625,18545274.725274723,122025054.94505496,72097948.71794872,87.90153,1.0,1.0,2.0,1.0,1.0,50.0,,0 days 00:00:00
2023-11-16 11:33:07.471,0.89414984,0.0,0.5908132,1.1935816,0.6314226,0.0,-0.0446823,0.661996,0.89406574,0.0,0.3936792,0.9849928,0.92101556,0.0,0.5361132,0.95106095,0.80075496,0.0,0.07892204,0.4798016,793.36993,454.5055,797.8022,786.52014,698.68134,0.0,0.0,0.411865234375,0.12939453125,0.92022705078125,3.5589599609375,-2.609405517578125,1.981353759765625,18545274.725274723,122025054.94505496,72097948.71794872,87.90153,1.0,1.0,2.0,1.0,1.0,50.0,,0 days 00:00:00.001000
2023-11-16 11:33:07.471,0.89414984,0.0,0.5908132,1.1935816,0.6314226,0.0,-0.0446823,0.661996,0.89406574,0.0,0.3936792,0.9849928,0.92101556,0.0,0.5361132,0.95106095,0.80075496,0.0,0.07892204,0.4798016,814.7253,159.56044,796.5934,800.2198,744.61536,0.0,0.0,0.411865234375,0.12939453125,0.92022705078125,3.5589599609375,-2.609405517578125,1.981353759765625,18545274.725274723,122025054.94505496,72097948.71794872,87.90153,1.0,1.0,2.0,1.0,1.0,50.0,,0 days 00:00:00
2023-11-16 11:33:07.471,0.89414984,0.0,0.5908132,1.1935816,0.6314226,0.0,-0.0446823,0.661996,0.89406574,0.0,0.3936792,0.9849928,0.92101556,0.0,0.5361132,0.95106095,0.80075496,0.0,0.07892204,0.4798016,806.6667,16.520147,784.10254,813.91943,929.9634,0.0,0.0,0.411865234375,0.12939453125,0.92022705078125,3.5589599609375,-2.609405517578125,1.981353759765625,18545274.725274723,122025054.94505496,72097948.71794872,87.90153,1.0,1.0,2.0,1.0,1.0,50.0,,0 days 00:00:00
2023-11-16 11:33:07.472,0.89414984,0.0,0.5908132,1.1935816,0.6314226,0.0,-0.0446823,0.661996,0.89406574,0.0,0.3936792,0.9849928,0.92101556,0.0,0.5361132,0.95106095,0.80075496,0.0,0.07892204,0.4798016,796.5934,0.0,787.72894,811.0989,937.2161,0.0,0.0,0.411865234375,0.12939453125,0.92022705078125,3.5589599609375,-2.609405517578125,1.981353759765625,18545274.725274723,122025054.94505496,72097948.71794872,87.90153,1.0,1.0,2.0,1.0,1.0,50.0,,0 days 00:00:00.001000
2023-11-16 11:33:07.472,0.89414984,0.0,0.5908132,1.1935816,0.6314226,0.0,-0.0446823,0.661996,0.89406574,0.0,0.3936792,0.9849928,0.92101556,0.0,0.5361132,0.95106095,0.80075496,0.0,0.07892204,0.4798016,774.83514,176.88644,809.4872,779.67035,715.6044,0.0,0.0,0.411865234375,0.12939453125,0.92022705078125,3.5589599609375,-2.609405517578125,1.981353759765625,18545274.725274723,122025054.94505496,72097948.71794872,87.90153,1.0,1.0,2.0,1.0,1.0,50.0,,0 days 00:00:00
2023-11-16 11:33:07.473,0.89414984,0.0,0.5908132,1.1935816,0.6314226,0.0,-0.0446823,0.661996,0.89406574,0.0,0.3936792,0.9849928,0.92101556,0.0,0.5361132,0.95106095,0.80075496,0.0,0.07892204,0.4798016,782.49084,359.4139,807.47253,780.07324,690.2198,0.0,0.0,0.411865234375,0.12939453125,0.92022705078125,3.5589599609375,-2.609405517578125,1.981353759765625,18545274.725274723,122025054.94505496,72097948.71794872,87.90153,1.0,1.0,2.0,1.0,1.0,50.0,,0 days 00:00:00.001000
2023-11-16 11:33:07.473,0.89414984,0.0,0.5908132,1.1935816,0.6314226,0.0,-0.0446823,0.661996,0.89406574,0.0,0.3936792,0.9849928,0.92101556,0.0,0.5361132,0.95106095,0.80075496,0.0,0.07892204,0.4798016,805.4579,62.05128,786.9231,810.293,899.34064,0.0,0.0,0.411865234375,0.12939453125,0.92022705078125,3.5589599609375,-2.609405517578125,1.981353759765625,18545274.725274723,122025054.94505496,72097948.71794872,87.90153,1.0,1.0,2.0,1.0,1.0,50.0,,0 days 00:00:00
2023-11-16 11:33:07.474,0.89414984,0.0,0.5908132,1.1935816,0.6314226,0.0,-0.0446823,0.661996,0.89406574,0.0,0.3936792,0.9849928,0.92101556,0.0,0.5361132,0.95106095,0.80075496,0.0,0.07892204,0.4798016,787.72894,99.52381,799.81683,796.1905,815.9341,0.0,0.0,0.411865234375,0.12939453125,0.92022705078125,3.5589599609375,-2.609405517578125,1.981353759765625,18545274.725274723,122025054.94505496,72097948.71794872,87.90153,1.0,1.0,2.0,1.0,1.0,50.0,,0 days 00:00:00.001000
2023-11-16 11:33:07.512,0.89414984,0.0,0.5908132,1.1935816,0.6314226,0.0,-0.0446823,0.661996,0.89406574,0.0,0.3936792,0.9849928,0.92101556,0.0,0.5361132,0.95106095,0.80075496,0.0,0.07892204,0.4798016,781.685,424.2857,815.5311,772.4176,637.8388,0.0,0.0,0.38568115234375,0.12066650390625,0.9046630859375,3.06549072265625,-4.568328857421875,2.086029052734375,18545274.725274723,122025054.94505496,72097948.71794872,87.90153,1.0,1.0,2.0,1.0,1.0,50.0,,0 days 00:00:00.038000
2023-11-16 11:33:07.512,0.89414984,0.0,0.5908132,1.1935816,0.6314226,0.0,-0.0446823,0.661996,0.89406574,0.0,0.3936792,0.9849928,0.92101556,0.0,0.5361132,0.95106095,0.80075496,0.0,0.07892204,0.4798016,780.4762,372.30768,800.2198,778.46155,757.1062,0.0,0.0,0.38568115234375,0.12066650390625,0.9046630859375,3.06549072265625,-4.568328857421875,2.086029052734375,18545274.725274723,122025054.94505496,72097948.71794872,87.90153,1.0,1.0,2.0,1.0,1.0,50.0,,0 days 00:00:00
2023-11-16 11:33:07.513,0.89414984,0.0,0.5908132,1.1935816,0.6314226,0.0,-0.0446823,0.661996,0.89406574,0.0,0.3936792,0.9849928,0.92101556,0.0,0.5361132,0.95106095,0.80075496,0.0,0.07892204,0.4798016,786.52014,106.77656,790.9524,794.9817,868.315,0.0,0.0,0.38568115234375,0.12066650390625,0.9046630859375,3.06549072265625,-4.568328857421875,2.086029052734375,18545274.725274723,122025054.94505496,72097948.71794872,87.90153,1.0,1.0,2.0,1.0,1.0,50.0,,0 days 00:00:00.001000
2023-11-16 11:33:07.513,0.89414984,0.0,0.5908132,1.1935816,0.6314226,0.0,-0.0446823,0.661996,0.89406574,0.0,0.3936792,0.9849928,0.92101556,0.0,0.5361132,0.95106095,0.80075496,0.0,0.07892204,0.4798016,800.6227,305.42123,805.8608,786.1172,789.7436,0.0,0.0,0.38568115234375,0.12066650390625,0.9046630859375,3.06549072265625,-4.568328857421875,2.086029052734375,18545274.725274723,122025054.94505496,72097948.71794872,87.90153,1.0,1.0,2.0,1.0,1.0,50.0,,0 days 00:00:00
2023-11-16 11:33:07.514,0.89414984,0.0,0.5908132,1.1935816,0.6314226,0.0,-0.0446823,0.661996,0.89406574,0.0,0.3936792,0.9849928,0.92101556,0.0,0.5361132,0.95106095,0.80075496,0.0,0.07892204,0.4798016,794.57874,450.07327,808.2784,771.6117,707.5458,0.0,0.0,0.38568115234375,0.12066650390625,0.9046630859375,3.06549072265625,-4.568328857421875,2.086029052734375,18545274.725274723,122025054.94505496,72097948.71794872,87.90153,1.0,1.0,2.0,1.0,1.0,50.0,,0 days 00:00:00.001000
2023-11-16 11:33:07.514,0.89414984,0.0,0.5908132,1.1935816,0.6314226,0.0,-0.0446823,0.661996,0.89406574,0.0,0.3936792,0.9849928,0.92101556,0.0,0.5361132,0.95106095,0.80075496,0.0,0.07892204,0.4798016,788.1319,118.86447,792.5641,781.28204,807.47253,0.0,0.0,0.38568115234375,0.12066650390625,0.9046630859375,3.06549072265625,-4.568328857421875,2.086029052734375,18545274.725274723,122025054.94505496,72097948.71794872,87.90153,1.0,1.0,2.0,1.0,1.0,50.0,,0 days 00:00:00
2023-11-16 11:33:07.515,0.89414984,0.0,0.5908132,1.1935816,0.6314226,0.0,-0.0446823,0.661996,0.89406574,0.0,0.3936792,0.9849928,0.92101556,0.0,0.5361132,0.95106095,0.80075496,0.0,0.07892204,0.4798016,790.9524,0.0,783.2967,798.60803,946.4835,0.0,0.0,0.38568115234375,0.12066650390625,0.9046630859375,3.06549072265625,-4.568328857421875,2.086029052734375,18545274.725274723,122025054.94505496,72097948.71794872,87.90153,1.0,1.0,2.0,1.0,1.0,50.0,,0 days 00:00:00.001000
2023-11-16 11:33:07.515,0.89414984,0.0,0.5908132,1.1935816,0.6314226,0.0,-0.0446823,0.661996,0.89406574,0.0,0.3936792,0.9849928,0.92101556,0.0,0.5361132,0.95106095,0.80075496,0.0,0.07892204,0.4798016,777.6557,220.40292,801.8315,788.1319,761.53845,0.0,0.0,0.38568115234375,0.12066650390625,0.9046630859375,3.06549072265625,-4.568328857421875,2.086029052734375,18545274.725274723,122025054.94505496,72097948.71794872,87.90153,1.0,1.0,2.0,1.0,1.0,50.0,,0 days 00:00:00
2023-11-16 11:33:07.516,0.89414984,0.0,0.5908132,1.1935816,0.6314226,0.0,-0.0446823,0.661996,0.89406574,0.0,0.3936792,0.9849928,0.92101556,0.0,0.5361132,0.95106095,0.80075496,0.0,0.07892204,0.4798016,767.5824,364.24908,807.0696,782.49084,652.3443,0.0,0.0,0.38568115234375,0.12066650390625,0.9046630859375,3.06549072265625,-4.568328857421875,2.086029052734375,18545274.725274723,122025054.94505496,72097948.71794872,87.90153,1.0,1.0,2.0,1.0,1.0,50.0,,0 days 00:00:00.001000
2023-11-16 11:33:07.516,0.89414984,0.0,0.5908132,1.1935816,0.6314226,0.0,-0.0446823,0.661996,0.89406574,0.0,0.3936792,0.9849928,0.92101556,0.0,0.5361132,0.95106095,0.80075496,0.0,0.07892204,0.4798016,781.28204,201.4652,793.7729,796.5934,755.89746,0.0,0.0,0.38568115234375,0.12066650390625,0.9046630859375,3.06549072265625,-4.568328857421875,2.086029052734375,18545274.725274723,122025054.94505496,72097948.71794872,87.90153,1.0,1.0,2.0,1.0,1.0,50.0,,0 days 00:00:00
2023-11-16 11:33:07.517,0.89414984,0.0,0.5908132,1.1935816,0.6314226,0.0,-0.0446823,0.661996,0.89406574,0.0,0.3936792,0.9849928,0.92101556,0.0,0.5361132,0.95106095,0.80075496,0.0,0.07892204,0.4798016,785.7143,159.56044,798.60803,813.5165,823.9927,0.0,0.0,0.38568115234375,0.12066650390625,0.9046630859375,3.06549072265625,-4.568328857421875,2.086029052734375,18545274.725274723,122025054.94505496,72097948.71794872,87.90153,1.0,1.0,2.0,1.0,1.0,50.0,,0 days 00:00:00.001000
2023-11-16 11:33:07.517,0.89414984,0.0,0.5908132,1.1935816,0.6314226,0.0,-0.0446823,0.661996,0.89406574,0.0,0.3936792,0.9849928,0.92101556,0.0,0.5361132,0.95106095,0.80075496,0.0,0.07892204,0.4798016,794.57874,346.11722,809.4872,802.23444,745.0183,0.0,0.0,0.38568115234375,0.12066650390625,0.9046630859375,3.06549072265625,-4.568328857421875,2.086029052734375,18545274.725274723,122025054.94505496,72097948.71794872,87.90153,1.0,1.0,2.0,1.0,1.0,50.0,,0 days 00:00:00
2023-11-16 11:33:07.556,0.89414984,0.0,0.5908132,1.1935816,0.6314226,0.0,-0.0446823,0.661996,0.89406574,0.0,0.3936792,0.9849928,0.92101556,0.0,0.5361132,0.95106095,0.80075496,0.0,0.07892204,0.4798016,805.4579,255.45787,803.8461,790.14655,718.022,0.0,0.0,0.37847900390625,0.12713623046875,0.92132568359375,2.803802490234375,-3.22998046875,2.4822998046875,18633113.553113554,122107252.74725276,72076996.33699633,88.519516,1.0,1.0,2.0,1.0,1.0,50.0,,0 days 00:00:00.039000
2023-11-16 11:33:07.557,0.9511344,0.0,0.55734736,1.1627525,0.67971855,0.0,-0.044653617,0.69718707,0.85861087,0.0,0.4065218,1.0076511,0.8921199,0.0,0.5353435,0.98404616,0.7843269,0.0,0.10796431,0.53507906,796.5934,74.94505,792.96704,809.0842,854.21246,0.0,0.0,0.37847900390625,0.12713623046875,0.92132568359375,2.803802490234375,-3.22998046875,2.4822998046875,18633113.553113554,122107252.74725276,72076996.33699633,88.519516,1.0,1.0,4.0,1.0,1.0,50.0,,0 days 00:00:00.001000
2023-11-16 11:33:07.558,0.9511344,0.0,0.55734736,1.1627525,0.67971855,0.0,-0.044653617,0.69718707,0.85861087,0.0,0.4065218,1.0076511,0.8921199,0.0,0.5353435,0.98404616,0.7843269,0.0,0.10796431,0.53507906,793.7729,168.82784,800.2198,807.8755,890.4762,0.0,0.0,0.37847900390625,0.12713623046875,0.92132568359375,2.803802490234375,-3.22998046875,2.4822998046875,18633113.553113554,122107252.74725276,72076996.33699633,88.519516,1.0,1.0,4.0,1.0,1.0,50.0,,0 days 00:00:00.001000
2023-11-16 11:33:07.559,0.9511344,0.0,0.55734736,1.1627525,0.67971855,0.0,-0.044653617,0.69718707,0.85861087,0.0,0.4065218,1.0076511,0.8921199,0.0,0.5353435,0.98404616,0.7843269,0.0,0.10796431,0.53507906,788.93774,409.7802,807.0696,788.93774,736.1539,0.0,0.0,0.37847900390625,0.12713623046875,0.92132568359375,2.803802490234375,-3.22998046875,2.4822998046875,18633113.553113554,122107252.74725276,72076996.33699633,88.519516,1.0,1.0,4.0,1.0,1.0,50.0,,0 days 00:00:00.001000
2023-11-16 11:33:07.559,0.9511344,0.0,0.55734736,1.1627525,0.67971855,0.0,-0.044653617,0.69718707,0.85861087,0.0,0.4065218,1.0076511,0.8921199,0.0,0.5353435,0.98404616,0.7843269,0.0,0.10796431,0.53507906,790.54944,377.54578,799.011,789.34064,709.15753,0.0,0.0,0.37847900390625,0.12713623046875,0.92132568359375,2.803802490234375,-3.22998046875,2.4822998046875,18633113.553113554,122107252.74725276,72076996.33699633,88.519516,1.0,1.0,4.0,1.0,1.0,50.0,,0 days 00:00:00
2023-11-16 11:33:07.559,0.9511344,0.0,0.55734736,1.1627525,0.67971855,0.0,-0.044653617,0.69718707,0.85861087,0.0,0.4065218,1.0076511,0.8921199,0.0,0.5353435,0.98404616,0.7843269,0.0,0.10796431,0.53507906,808.68134,85.01832,778.0586,804.2491,946.4835,0.0,0.0,0.37847900390625,0.12713623046875,0.92132568359375,2.803802490234375,-3.22998046875,2.4822998046875,18633113.553113554,122107252.74725276,72076996.33699633,88.519516,1.0,1.0,4.0,1.0,1.0,50.0,,0 days 00:00:00
2023-11-16 11:33:07.560,0.9511344,0.0,0.55734736,1.1627525,0.67971855,0.0,-0.044653617,0.69718707,0.85861087,0.0,0.4065218,1.0076511,0.8921199,0.0,0.5353435,0.98404616,0.7843269,0.0,0.10796431,0.53507906,812.3077,33.846153,786.52014,796.1905,991.2088,0.0,0.0,0.37847900390625,0.12713623046875,0.92132568359375,2.803802490234375,-3.22998046875,2.4822998046875,18633113.553113554,122107252.74725276,72076996.33699633,88.519516,1.0,1.0,4.0,1.0,1.0,50.0,,0 days 00:00:00.001000
2023-11-16 11:33:07.560,0.9511344,0.0,0.55734736,1.1627525,0.67971855,0.0,-0.044653617,0.69718707,0.85861087,0.0,0.4065218,1.0076511,0.8921199,0.0,0.5353435,0.98404616,0.7843269,0.0,0.10796431,0.53507906,797.3993,71.31868,800.2198,786.52014,789.7436,0.0,0.0,0.37847900390625,0.12713623046875,0.92132568359375,2.803802490234375,-3.22998046875,2.4822998046875,18633113.553113554,122107252.74725276,72076996.33699633,88.519516,1.0,1.0,4.0,1.0,1.0,50.0,,0 days 00:00:00
2023-11-16 11:33:07.560,0.9511344,0.0,0.55734736,1.1627525,0.67971855,0.0,-0.044653617,0.69718707,0.85861087,0.0,0.4065218,1.0076511,0.8921199,0.0,0.5353435,0.98404616,0.7843269,0.0,0.10796431,0.53507906,805.05493,43.113552,799.011,794.57874,768.7912,0.0,0.0,0.37847900390625,0.12713623046875,0.92132568359375,2.803802490234375,-3.22998046875,2.4822998046875,18633113.553113554,122107252.74725276,72076996.33699633,88.519516,1.0,1.0,4.0,1.0,1.0,50.0,,0 days 00:00:00
2023-11-16 11:33:07.561,0.9511344,0.0,0.55734736,1.1627525,0.67971855,0.0,-0.044653617,0.69718707,0.85861087,0.0,0.4065218,1.0076511,0.8921199,0.0,0.5353435,0.98404616,0.7843269,0.0,0.10796431,0.53507906,832.4542,12.490843,784.5055,824.7985,956.9597,0.0,0.0,0.37847900390625,0.12713623046875,0.92132568359375,2.803802490234375,-3.22998046875,2.4822998046875,18633113.553113554,122107252.74725276,72076996.33699633,88.519516,1.0,1.0,4.0,1.0,1.0,50.0,,0 days 00:00:00.001000
2023-11-16 11:33:07.561,0.9511344,0.0,0.55734736,1.1627525,0.67971855,0.0,-0.044653617,0.69718707,0.85861087,0.0,0.4065218,1.0076511,0.8921199,0.0,0.5353435,0.98404616,0.7843269,0.0,0.10796431,0.53507906,820.7692,25.384615,787.72894,815.12823,1032.7106,0.0,0.0,0.37847900390625,0.12713623046875,0.92132568359375,2.803802490234375,-3.22998046875,2.4822998046875,18633113.553113554,122107252.74725276,72076996.33699633,88.519516,1.0,1.0,4.0,1.0,1.0,50.0,,0 days 00:00:00
2023-11-16 11:33:07.561,0.9511344,0.0,0.55734736,1.1627525,0.67971855,0.0,-0.044653617,0.69718707,0.85861087,0.0,0.4065218,1.0076511,0.8921199,0.0,0.5353435,0.98404616,0.7843269,0.0,0.10796431,0.53507906,792.1612,375.93405,812.3077,769.19415,823.5897,0.0,0.0,0.37847900390625,0.12713623046875,0.92132568359375,2.803802490234375,-3.22998046875,2.4822998046875,18633113.553113554,122107252.74725276,72076996.33699633,88.519516,1.0,1.0,4.0,1.0,1.0,50.0,,0 days 00:00:00
2023-11-16 11:33:07.671,0.9511344,0.0,0.55734736,1.1627525,0.67971855,0.0,-0.044653617,0.69718707,0.85861087,0.0,0.4065218,1.0076511,0.8921199,0.0,0.5353435,0.98404616,0.7843269,0.0,0.10796431,0.53507906,807.47253,425.89743,807.47253,773.22345,766.77655,0.0,0.0,0.37847900390625,0.12713623046875,0.92132568359375,2.803802490234375,-3.22998046875,2.4822998046875,18633113.553113554,122107252.74725276,72076996.33699633,88.519516,1.0,1.0,4.0,1.0,1.0,50.0,,0 days 00:00:00.110000
2023-11-16 11:33:07.671,0.9511344,0.0,0.55734736,1.1627525,0.67971855,0.0,-0.044653617,0.69718707,0.85861087,0.0,0.4065218,1.0076511,0.8921199,0.0,0.5353435,0.98404616,0.7843269,0.0,0.10796431,0.53507906,816.337,248.20512,805.4579,785.31134,841.7216,0.0,0.0,0.37847900390625,0.12713623046875,0.92132568359375,2.803802490234375,-3.22998046875,2.4822998046875,18633113.553113554,122107252.74725276,72076996.33699633,88.519516,1.0,1.0,4.0,1.0,1.0,50.0,,0 days 00:00:00
2023-11-16 11:33:07.672,0.9511344,0.0,0.55734736,1.1627525,0.67971855,0.0,-0.044653617,0.69718707,0.85861087,0.0,0.4065218,1.0076511,0.8921199,0.0,0.5353435,0.98404616,0.7843269,0.0,0.10796431,0.53507906,804.2491,427.10623,808.68134,779.2674,818.3516,0.0,0.0,0.37847900390625,0.12713623046875,0.92132568359375,2.803802490234375,-3.22998046875,2.4822998046875,18633113.553113554,122107252.74725276,72076996.33699633,88.519516,1.0,1.0,4.0,1.0,1.0,50.0,,0 days 00:00:00.001000
