TimeStamp,Delta_TP9,Delta_AF7,Delta_AF8,Delta_TP10,Theta_TP9,Theta_AF7,Theta_AF8,Theta_TP10,Alpha_TP9,Alpha_AF7,Alpha_AF8,Alpha_TP10,Beta_TP9,Beta_AF7,Beta_AF8,Beta_TP10,Gamma_TP9,Gamma_AF7,Gamma_AF8,Gamma_TP10,RAW_TP9,RAW_AF7,RAW_AF8,RAW_TP10,AUX_RIGHT,Mellow,Concentration,Accelerometer_X,Accelerometer_Y,Accelerometer_Z,Gyro_X,Gyro_Y,Gyro_Z,PPG_Ambient,PPG_IR,PPG_Red,Heart_Rate,HeadBandOn,HSI_TP9,HSI_AF7,HSI_AF8,HSI_TP10,Battery,Elements,TimeDifference
2023-11-16 11:16:19.726,1.27782,0.22130865,0.41062972,1.2055066,0.88776493,0.15546437,0.43067843,0.59999955,1.3631306,0.028300654,0.31928045,0.98388594,0.79757565,-0.021661296,0.18988465,0.85484415,0.6701021,-0.11957961,-0.3177221,0.53210783,718.8278,793.7729,796.99634,726.08057,808.68134,0.0,0.0,0.3609619140625,0.02337646484375,0.931640625,3.401947021484375,-6.3104248046875,0.186920166015625,9910476.19047619,101784249.08424908,55610842.49084249,79.102425,1.0,2.0,1.0,1.0,2.0,55.0,,0 days 00:00:00.042000
2023-11-16 11:16:19.726,1.27782,0.22130865,0.41062972,1.2055066,0.88776493,0.15546437,0.43067843,0.59999955,1.3631306,0.028300654,0.31928045,0.98388594,0.79757565,-0.021661296,0.18988465,0.85484415,0.6701021,-0.11957961,-0.3177221,0.53210783,715.6044,792.5641,798.20514,722.8571,1027.8755,0.0,0.0,0.3609619140625,0.02337646484375,0.931640625,3.401947021484375,-6.3104248046875,0.186920166015625,9910476.19047619,101784249.08424908,55610842.49084249,79.102425,1.0,2.0,1.0,1.0,2.0,55.0,,0 days 00:00:00
2023-11-16 11:16:19.727,1.27782,0.22130865,0.41062972,1.2055066,0.88776493,0.15546437,0.43067843,0.59999955,1.3631306,0.028300654,0.31928045,0.98388594,0.79757565,-0.021661296,0.18988465,0.85484415,0.6701021,-0.11957961,-0.3177221,0.53210783,720.0366,794.57874,792.96704,718.8278,969.0476,0.0,0.0,0.3609619140625,0.02337646484375,0.931640625,3.401947021484375,-6.3104248046875,0.186920166015625,9910476.19047619,101784249.08424908,55610842.49084249,79.102425,1.0,2.0,1.0,1.0,2.0,55.0,,0 days 00:00:00.001000
2023-11-16 11:16:19.728,1.27782,0.22130865,0.41062972,1.2055066,0.88776493,0.15546437,0.43067843,0.59999955,1.3631306,0.028300654,0.31928045,0.98388594,0.79757565,-0.021661296,0.18988465,0.85484415,0.6701021,-0.11957961,-0.3177221,0.53210783,724.87177,794.17584,793.7729,719.2308,788.93774,0.0,0.0,0.3609619140625,0.02337646484375,0.931640625,3.401947021484375,-6.3104248046875,0.186920166015625,9910476.19047619,101784249.08424908,55610842.49084249,79.102425,1.0,2.0,1.0,1.0,2.0,55.0,,0 days 00:00:00.001000
2023-11-16 11:16:19.728,1.27782,0.22130865,0.41062972,1.2055066,0.88776493,0.15546437,0.43067843,0.59999955,1.3631306,0.028300654,0.31928045,0.98388594,0.79757565,-0.021661296,0.18988465,0.85484415,0.6701021,-0.11957961,-0.3177221,0.53210783,720.4396,786.52014,798.20514,714.3956,803.8461,0.0,0.0,0.3609619140625,0.02337646484375,0.931640625,3.401947021484375,-6.3104248046875,0.186920166015625,9910476.19047619,101784249.08424908,55610842.49084249,79.102425,1.0,2.0,1.0,1.0,2.0,55.0,,0 days 00:00:00
2023-11-16 11:16:19.729,1.27782,0.22130865,0.41062972,1.2055066,0.88776493,0.15546437,0.43067843,0.59999955,1.3631306,0.028300654,0.31928045,0.98388594,0.79757565,-0.021661296,0.18988465,0.85484415,0.6701021,-0.11957961,-0.3177221,0.53210783,715.6044,780.4762,798.20514,719.6337,891.685,0.0,0.0,0.3609619140625,0.02337646484375,0.931640625,3.401947021484375,-6.3104248046875,0.186920166015625,9910476.19047619,101784249.08424908,55610842.49084249,79.102425,1.0,2.0,1.0,1.0,2.0,55.0,,0 days 00:00:00.001000
2023-11-16 11:16:19.729,1.27782,0.22130865,0.41062972,1.2055066,0.88776493,0.15546437,0.43067843,0.59999955,1.3631306,0.028300654,0.31928045,0.98388594,0.79757565,-0.021661296,0.18988465,0.85484415,0.6701021,-0.11957961,-0.3177221,0.53210783,718.4249,784.90845,800.2198,728.9011,897.326,0.0,0.0,0.3609619140625,0.02337646484375,0.931640625,3.401947021484375,-6.3104248046875,0.186920166015625,9910476.19047619,101784249.08424908,55610842.49084249,79.102425,1.0,2.0,1.0,1.0,2.0,55.0,,0 days 00:00:00
2023-11-16 11:16:19.730,1.27782,0.22130865,0.41062972,1.2055066,0.88776493,0.15546437,0.43067843,0.59999955,1.3631306,0.028300654,0.31928045,0.98388594,0.79757565,-0.021661296,0.18988465,0.85484415,0.6701021,-0.11957961,-0.3177221,0.53210783,725.6777,792.96704,798.20514,720.84247,809.0842,0.0,0.0,0.3609619140625,0.02337646484375,0.931640625,3.401947021484375,-6.3104248046875,0.186920166015625,9910476.19047619,101784249.08424908,55610842.49084249,79.102425,1.0,2.0,1.0,1.0,2.0,55.0,,0 days 00:00:00.001000
2023-11-16 11:16:19.730,1.27782,0.22130865,0.41062972,1.2055066,0.88776493,0.15546437,0.43067843,0.59999955,1.3631306,0.028300654,0.31928045,0.98388594,0.79757565,-0.021661296,0.18988465,0.85484415,0.6701021,-0.11957961,-0.3177221,0.53210783,743.4066,794.17584,790.54944,702.71063,720.0366,0.0,0.0,0.3609619140625,0.02337646484375,0.931640625,3.401947021484375,-6.3104248046875,0.186920166015625,9910476.19047619,101784249.08424908,55610842.49084249,79.102425,1.0,2.0,1.0,1.0,2.0,55.0,,0 days 00:00:00
2023-11-16 11:16:19.731,1.27782,0.22130865,0.41062972,1.2055066,0.88776493,0.15546437,0.43067843,0.59999955,1.3631306,0.028300654,0.31928045,0.98388594,0.79757565,-0.021661296,0.18988465,0.85484415,0.6701021,-0.11957961,-0.3177221,0.53210783,731.31866,793.36993,793.7729,716.0073,824.3956,0.0,0.0,0.3609619140625,0.02337646484375,0.931640625,3.401947021484375,-6.3104248046875,0.186920166015625,9910476.19047619,101784249.08424908,55610842.49084249,79.102425,1.0,2.0,1.0,1.0,2.0,55.0,,0 days 00:00:00.001000
2023-11-16 11:16:19.731,1.27782,0.22130865,0.41062972,1.2055066,0.88776493,0.15546437,0.43067843,0.59999955,1.3631306,0.028300654,0.31928045,0.98388594,0.79757565,-0.021661296,0.18988465,0.85484415,0.6701021,-0.11957961,-0.3177221,0.53210783,716.8132,797.3993,798.60803,725.2747,958.97437,0.0,0.0,0.3609619140625,0.02337646484375,0.931640625,3.401947021484375,-6.3104248046875,0.186920166015625,9910476.19047619,101784249.08424908,55610842.49084249,79.102425,1.0,2.0,1.0,1.0,2.0,55.0,,0 days 00:00:00
2023-11-16 11:16:19.732,1.27782,0.22130865,0.41062972,1.2055066,0.88776493,0.15546437,0.43067843,0.59999955,1.3631306,0.028300654,0.31928045,0.98388594,0.79757565,-0.021661296,0.18988465,0.85484415,0.6701021,-0.11957961,-0.3177221,0.53210783,723.663,794.9817,794.57874,705.9341,821.1722,0.0,0.0,0.3609619140625,0.02337646484375,0.931640625,3.401947021484375,-6.3104248046875,0.186920166015625,9910476.19047619,101784249.08424908,55610842.49084249,79.102425,1.0,2.0,1.0,1.0,2.0,55.0,,0 days 00:00:00.001000
2023-11-16 11:16:19.754,1.27782,0.22130865,0.41062972,1.2055066,0.88776493,0.15546437,0.43067843,0.59999955,1.3631306,0.028300654,0.31928045,0.98388594,0.79757565,-0.021661296,0.18988465,0.85484415,0.6701021,-0.11957961,-0.3177221,0.53210783,710.3663,794.9817,793.36993,710.3663,731.7216,0.0,0.0,0.36273193359375,0.0181884765625,0.92572021484375,3.050537109375,-6.5496826171875,0.35888671875,9910476.19047619,101784249.08424908,55610842.49084249,79.102425,1.0,2.0,1.0,1.0,2.0,55.0,,0 days 00:00:00.022000
2023-11-16 11:16:19.755,1.27782,0.22130865,0.41062972,1.2055066,0.88776493,0.15546437,0.43067843,0.59999955,1.3631306,0.028300654,0.31928045,0.98388594,0.79757565,-0.021661296,0.18988465,0.85484415,0.6701021,-0.11957961,-0.3177221,0.53210783,705.12823,802.6374,801.02563,734.94507,797.8022,0.0,0.0,0.36273193359375,0.0181884765625,0.92572021484375,3.050537109375,-6.5496826171875,0.35888671875,9910476.19047619,101784249.08424908,55610842.49084249,79.102425,1.0,2.0,1.0,1.0,2.0,55.0,,0 days 00:00:00.001000
2023-11-16 11:16:19.755,1.27782,0.22130865,0.41062972,1.2055066,0.88776493,0.15546437,0.43067843,0.59999955,1.3631306,0.028300654,0.31928045,0.98388594,0.79757565,-0.021661296,0.18988465,0.85484415,0.6701021,-0.11957961,-0.3177221,0.53210783,710.3663,803.0403,806.26373,740.989,776.04395,0.0,0.0,0.36273193359375,0.0181884765625,0.92572021484375,3.050537109375,-6.5496826171875,0.35888671875,9910476.19047619,101784249.08424908,55610842.49084249,79.102425,1.0,2.0,1.0,1.0,2.0,55.0,,0 days 00:00:00
2023-11-16 11:16:19.756,1.27782,0.22130865,0.41062972,1.2055066,0.88776493,0.15546437,0.43067843,0.59999955,1.3631306,0.028300654,0.31928045,0.98388594,0.79757565,-0.021661296,0.18988465,0.85484415,0.6701021,-0.11957961,-0.3177221,0.53210783,700.696,793.36993,806.26373,700.293,694.2491,0.0,0.0,0.36273193359375,0.0181884765625,0.92572021484375,3.050537109375,-6.5496826171875,0.35888671875,9910476.19047619,101784249.08424908,55610842.49084249,79.102425,1.0,2.0,1.0,1.0,2.0,55.0,,0 days 00:00:00.001000
2023-11-16 11:16:19.756,1.27782,0.22130865,0.41062972,1.2055066,0.88776493,0.15546437,0.43067843,0.59999955,1.3631306,0.028300654,0.31928045,0.98388594,0.79757565,-0.021661296,0.18988465,0.85484415,0.6701021,-0.11957961,-0.3177221,0.53210783,709.9634,790.54944,802.6374,688.20514,823.1868,0.0,0.0,0.36273193359375,0.0181884765625,0.92572021484375,3.050537109375,-6.5496826171875,0.35888671875,9910476.19047619,101784249.08424908,55610842.49084249,79.102425,1.0,2.0,1.0,1.0,2.0,55.0,,0 days 00:00:00
2023-11-16 11:16:19.756,1.27782,0.22130865,0.41062972,1.2055066,0.88776493,0.15546437,0.43067843,0.59999955,1.3631306,0.028300654,0.31928045,0.98388594,0.79757565,-0.021661296,0.18988465,0.85484415,0.6701021,-0.11957961,-0.3177221,0.53210783,728.49817,790.14655,797.8022,716.4103,935.6044,0.0,0.0,0.36273193359375,0.0181884765625,0.92572021484375,3.050537109375,-6.5496826171875,0.35888671875,9910476.19047619,101784249.08424908,55610842.49084249,79.102425,1.0,2.0,1.0,1.0,2.0,55.0,,0 days 00:00:00
2023-11-16 11:16:19.756,1.27782,0.22130865,0.41062972,1.2055066,0.88776493,0.15546437,0.43067843,0.59999955,1.3631306,0.028300654,0.31928045,0.98388594,0.79757565,-0.021661296,0.18988465,0.85484415,0.6701021,-0.11957961,-0.3177221,0.53210783,721.2454,788.5348,796.99634,717.2161,829.6337,0.0,0.0,0.36273193359375,0.0181884765625,0.92572021484375,3.050537109375,-6.5496826171875,0.35888671875,9910476.19047619,101784249.08424908,55610842.49084249,79.102425,1.0,2.0,1.0,1.0,2.0,55.0,,0 days 00:00:00
2023-11-16 11:16:19.757,1.27782,0.22130865,0.41062972,1.2055066,0.88776493,0.15546437,0.43067843,0.59999955,1.3631306,0.028300654,0.31928045,0.98388594,0.79757565,-0.021661296,0.18988465,0.85484415,0.6701021,-0.11957961,-0.3177221,0.53210783,694.2491,783.69965,801.8315,707.5458,745.82416,0.0,0.0,0.36273193359375,0.0181884765625,0.92572021484375,3.050537109375,-6.5496826171875,0.35888671875,9910476.19047619,101784249.08424908,55610842.49084249,79.102425,1.0,2.0,1.0,1.0,2.0,55.0,,0 days 00:00:00.001000
2023-11-16 11:16:19.757,1.27782,0.22130865,0.41062972,1.2055066,0.88776493,0.15546437,0.43067843,0.59999955,1.3631306,0.028300654,0.31928045,0.98388594,0.79757565,-0.021661296,0.18988465,0.85484415,0.6701021,-0.11957961,-0.3177221,0.53210783,682.5641,788.93774,798.20514,702.3077,763.1502,0.0,0.0,0.36273193359375,0.0181884765625,0.92572021484375,3.050537109375,-6.5496826171875,0.35888671875,9910476.19047619,101784249.08424908,55610842.49084249,79.102425,1.0,2.0,1.0,1.0,2.0,55.0,,0 days 00:00:00
2023-11-16 11:16:19.757,1.27782,0.23816541,0.38453317,0.86307585,0.88776493,0.1720678,0.4096441,1.0253758,1.3631306,0.029967079,0.3640771,0.85103905,0.79757565,0.005145454,0.16913824,0.6488539,0.6701021,-0.08885775,-0.2632336,0.4718942,712.7839,796.99634,791.75824,720.0366,913.44324,0.0,0.0,0.36273193359375,0.0181884765625,0.92572021484375,3.050537109375,-6.5496826171875,0.35888671875,9910476.19047619,101784249.08424908,55610842.49084249,79.102425,1.0,2.0,1.0,1.0,2.0,55.0,,0 days 00:00:00
2023-11-16 11:16:19.758,1.27782,0.23816541,0.38453317,0.86307585,0.88776493,0.1720678,0.4096441,1.0253758,1.3631306,0.029967079,0.3640771,0.85103905,0.79757565,0.005145454,0.16913824,0.6488539,0.6701021,-0.08885775,-0.2632336,0.4718942,719.6337,795.38464,797.3993,725.2747,877.1795,0.0,0.0,0.36273193359375,0.0181884765625,0.92572021484375,3.050537109375,-6.5496826171875,0.35888671875,9910476.19047619,101784249.08424908,55610842.49084249,79.102425,1.0,2.0,1.0,1.0,2.0,55.0,,0 days 00:00:00.001000
2023-11-16 11:16:19.759,1.27782,0.23816541,0.38453317,0.86307585,0.88776493,0.1720678,0.4096441,1.0253758,1.3631306,0.029967079,0.3640771,0.85103905,0.79757565,0.005145454,0.16913824,0.6488539,0.6701021,-0.08885775,-0.2632336,0.4718942,710.3663,795.78754,803.0403,709.5604,776.04395,0.0,0.0,0.36273193359375,0.0181884765625,0.92572021484375,3.050537109375,-6.5496826171875,0.35888671875,9910476.19047619,101784249.08424908,55610842.49084249,79.102425,1.0,2.0,1.0,1.0,2.0,55.0,,0 days 00:00:00.001000
2023-11-16 11:16:19.793,1.27782,0.23816541,0.38453317,0.86307585,0.88776493,0.1720678,0.4096441,1.0253758,1.3631306,0.029967079,0.3640771,0.85103905,0.79757565,0.005145454,0.16913824,0.6488539,0.6701021,-0.08885775,-0.2632336,0.4718942,712.381,796.1905,801.4286,711.5751,822.7839,0.0,0.0,0.36273193359375,0.0181884765625,0.92572021484375,3.050537109375,-6.5496826171875,0.35888671875,9879047.61904762,101776996.33699632,55618901.0989011,79.52318,1.0,2.0,1.0,1.0,2.0,55.0,,0 days 00:00:00.034000
2023-11-16 11:16:19.794,1.27782,0.23816541,0.38453317,0.86307585,0.88776493,0.1720678,0.4096441,1.0253758,1.3631306,0.029967079,0.3640771,0.85103905,0.79757565,0.005145454,0.16913824,0.6488539,0.6701021,-0.08885775,-0.2632336,0.4718942,704.7253,796.99634,805.8608,697.8755,808.2784,0.0,0.0,0.36273193359375,0.0181884765625,0.92572021484375,3.050537109375,-6.5496826171875,0.35888671875,9879047.61904762,101776996.33699632,55618901.0989011,79.52318,1.0,2.0,1.0,1.0,2.0,55.0,,0 days 00:00:00.001000
2023-11-16 11:16:19.794,1.27782,0.23816541,0.38453317,0.86307585,0.88776493,0.1720678,0.4096441,1.0253758,1.3631306,0.029967079,0.3640771,0.85103905,0.79757565,0.005145454,0.16913824,0.6488539,0.6701021,-0.08885775,-0.2632336,0.4718942,695.4579,796.5934,802.6374,703.1135,820.7692,0.0,0.0,0.36273193359375,0.0181884765625,0.92572021484375,3.050537109375,-6.5496826171875,0.35888671875,9879047.61904762,101776996.33699632,55618901.0989011,79.52318,1.0,2.0,1.0,1.0,2.0,55.0,,0 days 00:00:00
2023-11-16 11:16:19.795,1.27782,0.23816541,0.38453317,0.86307585,0.88776493,0.1720678,0.4096441,1.0253758,1.3631306,0.029967079,0.3640771,0.85103905,0.79757565,0.005145454,0.16913824,0.6488539,0.6701021,-0.08885775,-0.2632336,0.4718942,703.1135,797.8022,795.78754,721.2454,753.8828,0.0,0.0,0.36273193359375,0.0181884765625,0.92572021484375,3.050537109375,-6.5496826171875,0.35888671875,9879047.61904762,101776996.33699632,55618901.0989011,79.52318,1.0,2.0,1.0,1.0,2.0,55.0,,0 days 00:00:00.001000
2023-11-16 11:16:19.795,1.27782,0.23816541,0.38453317,0.86307585,0.88776493,0.1720678,0.4096441,1.0253758,1.3631306,0.029967079,0.3640771,0.85103905,0.79757565,0.005145454,0.16913824,0.6488539,0.6701021,-0.08885775,-0.2632336,0.4718942,707.9487,801.02563,803.0403,713.5897,808.2784,0.0,0.0,0.36273193359375,0.0181884765625,0.92572021484375,3.050537109375,-6.5496826171875,0.35888671875,9879047.61904762,101776996.33699632,55618901.0989011,79.52318,1.0,2.0,1.0,1.0,2.0,55.0,,0 days 00:00:00
2023-11-16 11:16:19.795,1.27782,0.23816541,0.38453317,0.86307585,0.88776493,0.1720678,0.4096441,1.0253758,1.3631306,0.029967079,0.3640771,0.85103905,0.79757565,0.005145454,0.16913824,0.6488539,0.6701021,-0.08885775,-0.2632336,0.4718942,714.7985,801.8315,806.6667,711.978,913.8461,0.0,0.0,0.36273193359375,0.0181884765625,0.92572021484375,3.050537109375,-6.5496826171875,0.35888671875,9879047.61904762,101776996.33699632,55618901.0989011,79.52318,1.0,2.0,1.0,1.0,2.0,55.0,,0 days 00:00:00
2023-11-16 11:16:19.796,1.27782,0.23816541,0.38453317,0.86307585,0.88776493,0.1720678,0.4096441,1.0253758,1.3631306,0.029967079,0.3640771,0.85103905,0.79757565,0.005145454,0.16913824,0.6488539,0.6701021,-0.08885775,-0.2632336,0.4718942,717.2161,802.6374,801.8315,714.3956,801.8315,0.0,0.0,0.36273193359375,0.0181884765625,0.92572021484375,3.050537109375,-6.5496826171875,0.35888671875,9879047.61904762,101776996.33699632,55618901.0989011,79.52318,1.0,2.0,1.0,1.0,2.0,55.0,,0 days 00:00:00.001000
2023-11-16 11:16:19.796,1.27782,0.23816541,0.38453317,0.86307585,0.88776493,0.1720678,0.4096441,1.0253758,1.3631306,0.029967079,0.3640771,0.85103905,0.79757565,0.005145454,0.16913824,0.6488539,0.6701021,-0.08885775,-0.2632336,0.4718942,719.6337,801.4286,793.7729,710.3663,761.53845,0.0,0.0,0.36273193359375,0.0181884765625,0.92572021484375,3.050537109375,-6.5496826171875,0.35888671875,9879047.61904762,101776996.33699632,55618901.0989011,79.52318,1.0,2.0,1.0,1.0,2.0,55.0,,0 days 00:00:00
2023-11-16 11:16:19.797,1.27782,0.23816541,0.38453317,0.86307585,0.88776493,0.1720678,0.4096441,1.0253758,1.3631306,0.029967079,0.3640771,0.85103905,0.79757565,0.005145454,0.16913824,0.6488539,0.6701021,-0.08885775,-0.2632336,0.4718942,719.2308,803.8461,798.20514,720.0366,832.4542,0.0,0.0,0.36273193359375,0.0181884765625,0.92572021484375,3.050537109375,-6.5496826171875,0.35888671875,9879047.61904762,101776996.33699632,55618901.0989011,79.52318,1.0,2.0,1.0,1.0,2.0,55.0,,0 days 00:00:00.001000
2023-11-16 11:16:19.797,1.27782,0.23816541,0.38453317,0.86307585,0.88776493,0.1720678,0.4096441,1.0253758,1.3631306,0.029967079,0.3640771,0.85103905,0.79757565,0.005145454,0.16913824,0.6488539,0.6701021,-0.08885775,-0.2632336,0.4718942,728.0952,799.81683,801.8315,740.58606,869.5238,0.0,0.0,0.36273193359375,0.0181884765625,0.92572021484375,3.050537109375,-6.5496826171875,0.35888671875,9879047.61904762,101776996.33699632,55618901.0989011,79.52318,1.0,2.0,1.0,1.0,2.0,55.0,,0 days 00:00:00
2023-11-16 11:16:19.798,1.27782,0.23816541,0.38453317,0.86307585,0.88776493,0.1720678,0.4096441,1.0253758,1.3631306,0.029967079,0.3640771,0.85103905,0.79757565,0.005145454,0.16913824,0.6488539,0.6701021,-0.08885775,-0.2632336,0.4718942,738.5714,796.1905,797.3993,731.7216,831.6484,0.0,0.0,0.36273193359375,0.0181884765625,0.92572021484375,3.050537109375,-6.5496826171875,0.35888671875,9879047.61904762,101776996.33699632,55618901.0989011,79.52318,1.0,2.0,1.0,1.0,2.0,55.0,,0 days 00:00:00.001000
2023-11-16 11:16:19.798,1.27782,0.23816541,0.38453317,0.86307585,0.88776493,0.1720678,0.4096441,1.0253758,1.3631306,0.029967079,0.3640771,0.85103905,0.79757565,0.005145454,0.16913824,0.6488539,0.6701021,-0.08885775,-0.2632336,0.4718942,727.28937,801.8315,801.4286,726.08057,756.7033,0.0,0.0,0.36273193359375,0.0181884765625,0.92572021484375,3.050537109375,-6.5496826171875,0.35888671875,9879047.61904762,101776996.33699632,55618901.0989011,79.52318,1.0,2.0,1.0,1.0,2.0,55.0,,0 days 00:00:00
2023-11-16 11:16:19.840,1.27782,0.23816541,0.38453317,0.86307585,0.88776493,0.1720678,0.4096441,1.0253758,1.3631306,0.029967079,0.3640771,0.85103905,0.79757565,0.005145454,0.16913824,0.6488539,0.6701021,-0.08885775,-0.2632336,0.4718942,732.52747,803.0403,801.4286,739.3773,865.09155,0.0,0.0,0.38470458984375,0.0208740234375,0.9400634765625,2.87109375,-5.99639892578125,0.635528564453125,9879047.61904762,101776996.33699632,55618901.0989011,79.52318,1.0,2.0,1.0,1.0,2.0,55.0,,0 days 00:00:00.042000
2023-11-16 11:16:19.840,1.27782,0.23816541,0.38453317,0.86307585,0.88776493,0.1720678,0.4096441,1.0253758,1.3631306,0.029967079,0.3640771,0.85103905,0.79757565,0.005145454,0.16913824,0.6488539,0.6701021,-0.08885775,-0.2632336,0.4718942,736.9597,798.60803,794.57874,736.1539,1006.9231,0.0,0.0,0.38470458984375,0.0208740234375,0.9400634765625,2.87109375,-5.99639892578125,0.635528564453125,9879047.61904762,101776996.33699632,55618901.0989011,79.52318,1.0,2.0,1.0,1.0,2.0,55.0,,0 days 00:00:00
2023-11-16 11:16:19.841,1.27782,0.23816541,0.38453317,0.86307585,0.88776493,0.1720678,0.4096441,1.0253758,1.3631306,0.029967079,0.3640771,0.85103905,0.79757565,0.005145454,0.16913824,0.6488539,0.6701021,-0.08885775,-0.2632336,0.4718942,728.49817,792.96704,805.05493,724.4689,856.63007,0.0,0.0,0.38470458984375,0.0208740234375,0.9400634765625,2.87109375,-5.99639892578125,0.635528564453125,9879047.61904762,101776996.33699632,55618901.0989011,79.52318,1.0,2.0,1.0,1.0,2.0,55.0,,0 days 00:00:00.001000
2023-11-16 11:16:19.841,1.27782,0.23816541,0.38453317,0.86307585,0.88776493,0.1720678,0.4096441,1.0253758,1.3631306,0.029967079,0.3640771,0.85103905,0.79757565,0.005145454,0.16913824,0.6488539,0.6701021,-0.08885775,-0.2632336,0.4718942,743.8095,796.99634,809.89014,730.9158,827.619,0.0,0.0,0.38470458984375,0.0208740234375,0.9400634765625,2.87109375,-5.99639892578125,0.635528564453125,9879047.61904762,101776996.33699632,55618901.0989011,79.52318,1.0,2.0,1.0,1.0,2.0,55.0,,0 days 00:00:00
2023-11-16 11:16:19.841,1.27782,0.23816541,0.38453317,0.86307585,0.88776493,0.1720678,0.4096441,1.0253758,1.3631306,0.029967079,0.3640771,0.85103905,0.79757565,0.005145454,0.16913824,0.6488539,0.6701021,-0.08885775,-0.2632336,0.4718942,742.6007,805.4579,805.4579,741.39197,850.58606,0.0,0.0,0.38470458984375,0.0208740234375,0.9400634765625,2.87109375,-5.99639892578125,0.635528564453125,9879047.61904762,101776996.33699632,55618901.0989011,79.52318,1.0,2.0,1.0,1.0,2.0,55.0,,0 days 00:00:00
2023-11-16 11:16:19.842,1.27782,0.23816541,0.38453317,0.86307585,0.88776493,0.1720678,0.4096441,1.0253758,1.3631306,0.029967079,0.3640771,0.85103905,0.79757565,0.005145454,0.16913824,0.6488539,0.6701021,-0.08885775,-0.2632336,0.4718942,740.18317,808.2784,800.2198,744.21246,788.5348,0.0,0.0,0.38470458984375,0.0208740234375,0.9400634765625,2.87109375,-5.99639892578125,0.635528564453125,9879047.61904762,101776996.33699632,55618901.0989011,79.52318,1.0,2.0,1.0,1.0,2.0,55.0,,0 days 00:00:00.001000
2023-11-16 11:16:19.842,1.27782,0.23816541,0.38453317,0.86307585,0.88776493,0.1720678,0.4096441,1.0253758,1.3631306,0.029967079,0.3640771,0.85103905,0.79757565,0.005145454,0.16913824,0.6488539,0.6701021,-0.08885775,-0.2632336,0.4718942,764.35895,805.8608,790.54944,743.4066,794.57874,0.0,0.0,0.38470458984375,0.0208740234375,0.9400634765625,2.87109375,-5.99639892578125,0.635528564453125,9879047.61904762,101776996.33699632,55618901.0989011,79.52318,1.0,2.0,1.0,1.0,2.0,55.0,,0 days 00:00:00
2023-11-16 11:16:19.842,1.27782,0.23816541,0.38453317,0.86307585,0.88776493,0.1720678,0.4096441,1.0253758,1.3631306,0.029967079,0.3640771,0.85103905,0.79757565,0.005145454,0.16913824,0.6488539,0.6701021,-0.08885775,-0.2632336,0.4718942,737.76556,796.1905,806.6667,750.2564,842.52747,0.0,0.0,0.38470458984375,0.0208740234375,0.9400634765625,2.87109375,-5.99639892578125,0.635528564453125,9879047.61904762,101776996.33699632,55618901.0989011,79.52318,1.0,2.0,1.0,1.0,2.0,55.0,,0 days 00:00:00
2023-11-16 11:16:19.842,1.27782,0.23816541,0.38453317,0.86307585,0.88776493,0.1720678,0.4096441,1.0253758,1.3631306,0.029967079,0.3640771,0.85103905,0.79757565,0.005145454,0.16913824,0.6488539,0.6701021,-0.08885775,-0.2632336,0.4718942,706.337,789.34064,818.3516,750.2564,1027.8755,0.0,0.0,0.38470458984375,0.0208740234375,0.9400634765625,2.87109375,-5.99639892578125,0.635528564453125,9879047.61904762,101776996.33699632,55618901.0989011,79.52318,1.0,2.0,1.0,1.0,2.0,55.0,,0 days 00:00:00
2023-11-16 11:16:19.843,1.27782,0.23816541,0.38453317,0.86307585,0.88776493,0.1720678,0.4096441,1.0253758,1.3631306,0.029967079,0.3640771,0.85103905,0.79757565,0.005145454,0.16913824,0.6488539,0.6701021,-0.08885775,-0.2632336,0.4718942,710.3663,792.96704,819.5604,738.5714,1095.5677,0.0,0.0,0.38470458984375,0.0208740234375,0.9400634765625,2.87109375,-5.99639892578125,0.635528564453125,9879047.61904762,101776996.33699632,55618901.0989011,79.52318,1.0,2.0,1.0,1.0,2.0,55.0,,0 days 00:00:00.001000
2023-11-16 11:16:19.843,1.27782,0.23816541,0.38453317,0.86307585,0.88776493,0.1720678,0.4096441,1.0253758,1.3631306,0.029967079,0.3640771,0.85103905,0.79757565,0.005145454,0.16913824,0.6488539,0.6701021,-0.08885775,-0.2632336,0.4718942,708.3516,792.5641,825.2015,717.2161,826.0073,0.0,0.0,0.38470458984375,0.0208740234375,0.9400634765625,2.87109375,-5.99639892578125,0.635528564453125,9879047.61904762,101776996.33699632,55618901.0989011,79.52318,1.0,2.0,1.0,1.0,2.0,55.0,,0 days 00:00:00
2023-11-16 11:16:19.843,1.27782,0.27746132,0.36456433,0.9026017,0.88776493,0.19517823,0.38822004,1.0405004,1.3631306,0.029967079,0.38874638,0.8767273,0.79757565,0.05108206,0.1533125,0.70730567,0.6701021,-0.07650469,-0.23074286,0.48906168,716.8132,788.93774,824.7985,722.8571,732.52747,0.0,0.0,0.38470458984375,0.0208740234375,0.9400634765625,2.87109375,-5.99639892578125,0.635528564453125,9879047.61904762,101776996.33699632,55618901.0989011,79.52318,1.0,1.0,1.0,1.0,1.0,55.0,,0 days 00:00:00
2023-11-16 11:16:19.874,1.27782,0.27746132,0.36456433,0.9026017,0.88776493,0.19517823,0.38822004,1.0405004,1.3631306,0.029967079,0.38874638,0.8767273,0.79757565,0.05108206,0.1533125,0.70730567,0.6701021,-0.07650469,-0.23074286,0.48906168,719.2308,791.3553,832.0513,739.7802,794.57874,0.0,0.0,0.38848876953125,0.01995849609375,0.92254638671875,2.91595458984375,-6.44500732421875,2.1234130859375,9883076.923076922,101747985.34798534,55593113.55311355,79.91931,1.0,1.0,1.0,1.0,1.0,55.0,,0 days 00:00:00.031000
2023-11-16 11:16:19.875,1.27782,0.27746132,0.36456433,0.9026017,0.88776493,0.19517823,0.38822004,1.0405004,1.3631306,0.029967079,0.38874638,0.8767273,0.79757565,0.05108206,0.1533125,0.70730567,0.6701021,-0.07650469,-0.23074286,0.48906168,713.1868,796.1905,836.08057,734.5421,740.58606,0.0,0.0,0.38848876953125,0.01995849609375,0.92254638671875,2.91595458984375,-6.44500732421875,2.1234130859375,9883076.923076922,101747985.34798534,55593113.55311355,79.91931,1.0,1.0,1.0,1.0,1.0,55.0,,0 days 00:00:00.001000
2023-11-16 11:16:19.875,1.27782,0.27746132,0.36456433,0.9026017,0.88776493,0.19517823,0.38822004,1.0405004,1.3631306,0.029967079,0.38874638,0.8767273,0.79757565,0.05108206,0.1533125,0.70730567,0.6701021,-0.07650469,-0.23074286,0.48906168,732.9304,796.1905,833.663,728.0952,722.0513,0.0,0.0,0.38848876953125,0.01995849609375,0.92254638671875,2.91595458984375,-6.44500732421875,2.1234130859375,9883076.923076922,101747985.34798534,55593113.55311355,79.91931,1.0,1.0,1.0,1.0,1.0,55.0,,0 days 00:00:00
2023-11-16 11:16:19.876,1.27782,0.27746132,0.36456433,0.9026017,0.88776493,0.19517823,0.38822004,1.0405004,1.3631306,0.029967079,0.38874638,0.8767273,0.79757565,0.05108206,0.1533125,0.70730567,0.6701021,-0.07650469,-0.23074286,0.48906168,740.18317,793.7729,826.8132,721.2454,757.50916,0.0,0.0,0.38848876953125,0.01995849609375,0.92254638671875,2.91595458984375,-6.44500732421875,2.1234130859375,9883076.923076922,101747985.34798534,55593113.55311355,79.91931,1.0,1.0,1.0,1.0,1.0,55.0,,0 days 00:00:00.001000
2023-11-16 11:16:19.876,1.27782,0.27746132,0.36456433,0.9026017,0.88776493,0.19517823,0.38822004,1.0405004,1.3631306,0.029967079,0.38874638,0.8767273,0.79757565,0.05108206,0.1533125,0.70730567,0.6701021,-0.07650469,-0.23074286,0.48906168,728.49817,798.20514,818.3516,715.6044,776.4469,0.0,0.0,0.38848876953125,0.01995849609375,0.92254638671875,2.91595458984375,-6.44500732421875,2.1234130859375,9883076.923076922,101747985.34798534,55593113.55311355,79.91931,1.0,1.0,1.0,1.0,1.0,55.0,,0 days 00:00:00
2023-11-16 11:16:19.876,1.27782,0.27746132,0.36456433,0.9026017,0.88776493,0.19517823,0.38822004,1.0405004,1.3631306,0.029967079,0.38874638,0.8767273,0.79757565,0.05108206,0.1533125,0.70730567,0.6701021,-0.07650469,-0.23074286,0.48906168,736.1539,797.8022,823.1868,719.2308,845.7509,0.0,0.0,0.38848876953125,0.01995849609375,0.92254638671875,2.91595458984375,-6.44500732421875,2.1234130859375,9883076.923076922,101747985.34798534,55593113.55311355,79.91931,1.0,1.0,1.0,1.0,1.0,55.0,,0 days 00:00:00
2023-11-16 11:16:19.877,1.27782,0.27746132,0.36456433,0.9026017,0.88776493,0.19517823,0.38822004,1.0405004,1.3631306,0.029967079,0.38874638,0.8767273,0.79757565,0.05108206,0.1533125,0.70730567,0.6701021,-0.07650469,-0.23074286,0.48906168,748.24176,794.17584,827.2161,730.5128,866.30035,0.0,0.0,0.38848876953125,0.01995849609375,0.92254638671875,2.91595458984375,-6.44500732421875,2.1234130859375,9883076.923076922,101747985.34798534,55593113.55311355,79.91931,1.0,1.0,1.0,1.0,1.0,55.0,,0 days 00:00:00.001000
2023-11-16 11:16:19.877,1.27782,0.27746132,0.36456433,0.9026017,0.88776493,0.19517823,0.38822004,1.0405004,1.3631306,0.029967079,0.38874638,0.8767273,0.79757565,0.05108206,0.1533125,0.70730567,0.6701021,-0.07650469,-0.23074286,0.48906168,748.24176,793.36993,817.9487,748.6447,923.91943,0.0,0.0,0.38848876953125,0.01995849609375,0.92254638671875,2.91595458984375,-6.44500732421875,2.1234130859375,9883076.923076922,101747985.34798534,55593113.55311355,79.91931,1.0,1.0,1.0,1.0,1.0,55.0,,0 days 00:00:00
2023-11-16 11:16:19.877,1.27782,0.27746132,0.36456433,0.9026017,0.88776493,0.19517823,0.38822004,1.0405004,1.3631306,0.029967079,0.38874638,0.8767273,0.79757565,0.05108206,0.1533125,0.70730567,0.6701021,-0.07650469,-0.23074286,0.48906168,738.5714,790.54944,815.12823,742.6007,919.0842,0.0,0.0,0.38848876953125,0.01995849609375,0.92254638671875,2.91595458984375,-6.44500732421875,2.1234130859375,9883076.923076922,101747985.34798534,55593113.55311355,79.91931,1.0,1.0,1.0,1.0,1.0,55.0,,0 days 00:00:00
2023-11-16 11:16:19.878,1.27782,0.27746132,0.36456433,0.9026017,0.88776493,0.19517823,0.38822004,1.0405004,1.3631306,0.029967079,0.38874638,0.8767273,0.79757565,0.05108206,0.1533125,0.70730567,0.6701021,-0.07650469,-0.23074286,0.48906168,732.1245,790.14655,820.7692,728.9011,804.65204,0.0,0.0,0.38848876953125,0.01995849609375,0.92254638671875,2.91595458984375,-6.44500732421875,2.1234130859375,9883076.923076922,101747985.34798534,55593113.55311355,79.91931,1.0,1.0,1.0,1.0,1.0,55.0,,0 days 00:00:00.001000
2023-11-16 11:16:19.878,1.27782,0.27746132,0.36456433,0.9026017,0.88776493,0.19517823,0.38822004,1.0405004,1.3631306,0.029967079,0.38874638,0.8767273,0.79757565,0.05108206,0.1533125,0.70730567,0.6701021,-0.07650469,-0.23074286,0.48906168,735.34796,792.5641,819.9634,729.304,757.1062,0.0,0.0,0.38848876953125,0.01995849609375,0.92254638671875,2.91595458984375,-6.44500732421875,2.1234130859375,9883076.923076922,101747985.34798534,55593113.55311355,79.91931,1.0,1.0,1.0,1.0,1.0,55.0,,0 days 00:00:00
2023-11-16 11:16:19.878,1.27782,0.27746132,0.36456433,0.9026017,0.88776493,0.19517823,0.38822004,1.0405004,1.3631306,0.029967079,0.38874638,0.8767273,0.79757565,0.05108206,0.1533125,0.70730567,0.6701021,-0.07650469,-0.23074286,0.48906168,749.45056,795.78754,816.7399,743.8095,866.7033,0.0,0.0,0.38848876953125,0.01995849609375,0.92254638671875,2.91595458984375,-6.44500732421875,2.1234130859375,9883076.923076922,101747985.34798534,55593113.55311355,79.91931,1.0,1.0,1.0,1.0,1.0,55.0,,0 days 00:00:00
2023-11-16 11:16:19.932,1.27782,0.27746132,0.36456433,0.9026017,0.88776493,0.19517823,0.38822004,1.0405004,1.3631306,0.029967079,0.38874638,0.8767273,0.79757565,0.05108206,0.1533125,0.70730567,0.6701021,-0.07650469,-0.23074286,0.48906168,745.82416,795.78754,815.12823,754.68866,1003.69965,0.0,0.0,0.39544677734375,0.01483154296875,0.92681884765625,2.325286865234375,-4.26177978515625,4.50103759765625,9883076.923076922,101747985.34798534,55593113.55311355,79.91931,1.0,1.0,1.0,1.0,1.0,55.0,,0 days 00:00:00.054000
2023-11-16 11:16:19.933,1.27782,0.27746132,0.36456433,0.9026017,0.88776493,0.19517823,0.38822004,1.0405004,1.3631306,0.029967079,0.38874638,0.8767273,0.79757565,0.05108206,0.1533125,0.70730567,0.6701021,-0.07650469,-0.23074286,0.48906168,744.21246,795.78754,821.5751,747.8388,753.8828,0.0,0.0,0.39544677734375,0.01483154296875,0.92681884765625,2.325286865234375,-4.26177978515625,4.50103759765625,9883076.923076922,101747985.34798534,55593113.55311355,79.91931,1.0,1.0,1.0,1.0,1.0,55.0,,0 days 00:00:00.001000
2023-11-16 11:16:19.934,1.27782,0.27746132,0.36456433,0.9026017,0.88776493,0.19517823,0.38822004,1.0405004,1.3631306,0.029967079,0.38874638,0.8767273,0.79757565,0.05108206,0.1533125,0.70730567,0.6701021,-0.07650469,-0.23074286,0.48906168,763.5531,798.60803,821.5751,749.0476,699.0842,0.0,0.0,0.39544677734375,0.01483154296875,0.92681884765625,2.325286865234375,-4.26177978515625,4.50103759765625,9883076.923076922,101747985.34798534,55593113.55311355,79.91931,1.0,1.0,1.0,1.0,1.0,55.0,,0 days 00:00:00.001000
2023-11-16 11:16:19.934,1.27782,0.27746132,0.36456433,0.9026017,0.88776493,0.19517823,0.38822004,1.0405004,1.3631306,0.029967079,0.38874638,0.8767273,0.79757565,0.05108206,0.1533125,0.70730567,0.6701021,-0.07650469,-0.23074286,0.48906168,762.74725,801.4286,814.7253,744.21246,773.6264,0.0,0.0,0.39544677734375,0.01483154296875,0.92681884765625,2.325286865234375,-4.26177978515625,4.50103759765625,9883076.923076922,101747985.34798534,55593113.55311355,79.91931,1.0,1.0,1.0,1.0,1.0,55.0,,0 days 00:00:00
2023-11-16 11:16:19.935,1.27782,0.27746132,0.36456433,0.9026017,0.88776493,0.19517823,0.38822004,1.0405004,1.3631306,0.029967079,0.38874638,0.8767273,0.79757565,0.05108206,0.1533125,0.70730567,0.6701021,-0.07650469,-0.23074286,0.48906168,745.0183,802.23444,820.7692,733.73627,821.1722,0.0,0.0,0.39544677734375,0.01483154296875,0.92681884765625,2.325286865234375,-4.26177978515625,4.50103759765625,9883076.923076922,101747985.34798534,55593113.55311355,79.91931,1.0,1.0,1.0,1.0,1.0,55.0,,0 days 00:00:00.001000
2023-11-16 11:16:19.935,1.27782,0.27746132,0.36456433,0.9026017,0.88776493,0.19517823,0.38822004,1.0405004,1.3631306,0.029967079,0.38874638,0.8767273,0.79757565,0.05108206,0.1533125,0.70730567,0.6701021,-0.07650469,-0.23074286,0.48906168,732.1245,799.81683,822.381,730.9158,831.2454,0.0,0.0,0.39544677734375,0.01483154296875,0.92681884765625,2.325286865234375,-4.26177978515625,4.50103759765625,9883076.923076922,101747985.34798534,55593113.55311355,79.91931,1.0,1.0,1.0,1.0,1.0,55.0,,0 days 00:00:00
2023-11-16 11:16:19.936,1.27782,0.27746132,0.36456433,0.9026017,0.88776493,0.19517823,0.38822004,1.0405004,1.3631306,0.029967079,0.38874638,0.8767273,0.79757565,0.05108206,0.1533125,0.70730567,0.6701021,-0.07650469,-0.23074286,0.48906168,731.7216,800.6227,815.12823,731.7216,756.30035,0.0,0.0,0.39544677734375,0.01483154296875,0.92681884765625,2.325286865234375,-4.26177978515625,4.50103759765625,9883076.923076922,101747985.34798534,55593113.55311355,79.91931,1.0,1.0,1.0,1.0,1.0,55.0,,0 days 00:00:00.001000
2023-11-16 11:16:19.936,1.27782,0.27746132,0.36456433,0.9026017,0.88776493,0.19517823,0.38822004,1.0405004,1.3631306,0.029967079,0.38874638,0.8767273,0.79757565,0.05108206,0.1533125,0.70730567,0.6701021,-0.07650469,-0.23074286,0.48906168,761.13556,807.8755,816.7399,755.4945,943.2601,0.0,0.0,0.39544677734375,0.01483154296875,0.92681884765625,2.325286865234375,-4.26177978515625,4.50103759765625,9883076.923076922,101747985.34798534,55593113.55311355,79.91931,1.0,1.0,1.0,1.0,1.0,55.0,,0 days 00:00:00
2023-11-16 11:16:19.937,1.27782,0.27746132,0.36456433,0.9026017,0.88776493,0.19517823,0.38822004,1.0405004,1.3631306,0.029967079,0.38874638,0.8767273,0.79757565,0.05108206,0.1533125,0.70730567,0.6701021,-0.07650469,-0.23074286,0.48906168,775.2381,811.9048,819.15753,760.7326,949.304,0.0,0.0,0.39544677734375,0.01483154296875,0.92681884765625,2.325286865234375,-4.26177978515625,4.50103759765625,9883076.923076922,101747985.34798534,55593113.55311355,79.91931,1.0,1.0,1.0,1.0,1.0,55.0,,0 days 00:00:00.001000
2023-11-16 11:16:19.938,1.27782,0.27746132,0.36456433,0.9026017,0.88776493,0.19517823,0.38822004,1.0405004,1.3631306,0.029967079,0.38874638,0.8767273,0.79757565,0.05108206,0.1533125,0.70730567,0.6701021,-0.07650469,-0.23074286,0.48906168,748.6447,803.8461,814.7253,728.9011,708.3516,0.0,0.0,0.39544677734375,0.01483154296875,0.92681884765625,2.325286865234375,-4.26177978515625,4.50103759765625,9883076.923076922,101747985.34798534,55593113.55311355,79.91931,1.0,1.0,1.0,1.0,1.0,55.0,,0 days 00:00:00.001000
2023-11-16 11:16:19.938,1.27782,0.27746132,0.36456433,0.9026017,0.88776493,0.19517823,0.38822004,1.0405004,1.3631306,0.029967079,0.38874638,0.8767273,0.79757565,0.05108206,0.1533125,0.70730567,0.6701021,-0.07650469,-0.23074286,0.48906168,746.63007,804.2491,809.0842,728.0952,691.8315,0.0,0.0,0.39544677734375,0.01483154296875,0.92681884765625,2.325286865234375,-4.26177978515625,4.50103759765625,9883076.923076922,101747985.34798534,55593113.55311355,79.91931,1.0,1.0,1.0,1.0,1.0,55.0,,0 days 00:00:00
2023-11-16 11:16:19.939,1.27782,0.27746132,0.36456433,0.9026017,0.88776493,0.19517823,0.38822004,1.0405004,1.3631306,0.029967079,0.38874638,0.8767273,0.79757565,0.05108206,0.1533125,0.70730567,0.6701021,-0.07650469,-0.23074286,0.48906168,762.3443,804.2491,814.7253,742.1978,799.011,0.0,0.0,0.39544677734375,0.01483154296875,0.92681884765625,2.325286865234375,-4.26177978515625,4.50103759765625,9883076.923076922,101747985.34798534,55593113.55311355,79.91931,1.0,1.0,1.0,1.0,1.0,55.0,,0 days 00:00:00.001000
2023-11-16 11:16:19.979,1.27782,0.27746132,0.36456433,0.9026017,0.88776493,0.19517823,0.38822004,1.0405004,1.3631306,0.029967079,0.38874638,0.8767273,0.79757565,0.05108206,0.1533125,0.70730567,0.6701021,-0.07650469,-0.23074286,0.48906168,761.53845,803.0403,815.12823,743.00366,798.20514,0.0,0.0,0.38409423828125,0.013671875,0.93927001953125,2.49725341796875,-5.719757080078125,3.050537109375,9978974.358974358,101781831.5018315,55627765.56776557,80.046135,1.0,1.0,1.0,1.0,1.0,55.0,,0 days 00:00:00.040000
2023-11-16 11:16:19.980,1.27782,0.3226783,0.35517204,0.98054564,0.88776493,0.21241252,0.37038073,1.0423903,1.3631306,0.065189056,0.39515227,0.88286275,0.79757565,0.10842801,0.14062606,0.742739,0.6701021,-0.07741817,-0.21793474,0.50624985,737.76556,799.41394,800.2198,718.8278,690.2198,0.0,0.0,0.38409423828125,0.013671875,0.93927001953125,2.49725341796875,-5.719757080078125,3.050537109375,9978974.358974358,101781831.5018315,55627765.56776557,80.046135,1.0,1.0,1.0,1.0,1.0,55.0,,0 days 00:00:00.001000
2023-11-16 11:16:19.983,1.27782,0.3226783,0.35517204,0.98054564,0.88776493,0.21241252,0.37038073,1.0423903,1.3631306,0.065189056,0.39515227,0.88286275,0.79757565,0.10842801,0.14062606,0.742739,0.6701021,-0.07741817,-0.21793474,0.50624985,745.82416,796.5934,802.23444,726.08057,818.3516,0.0,0.0,0.38409423828125,0.013671875,0.93927001953125,2.49725341796875,-5.719757080078125,3.050537109375,9978974.358974358,101781831.5018315,55627765.56776557,80.046135,1.0,1.0,1.0,1.0,1.0,55.0,,0 days 00:00:00.003000
2023-11-16 11:16:19.983,1.27782,0.3226783,0.35517204,0.98054564,0.88776493,0.21241252,0.37038073,1.0423903,1.3631306,0.065189056,0.39515227,0.88286275,0.79757565,0.10842801,0.14062606,0.742739,0.6701021,-0.07741817,-0.21793474,0.50624985,777.25275,797.8022,807.47253,743.4066,946.4835,0.0,0.0,0.38409423828125,0.013671875,0.93927001953125,2.49725341796875,-5.719757080078125,3.050537109375,9978974.358974358,101781831.5018315,55627765.56776557,80.046135,1.0,1.0,1.0,1.0,1.0,55.0,,0 days 00:00:00
2023-11-16 11:16:19.983,1.27782,0.3226783,0.35517204,0.98054564,0.88776493,0.21241252,0.37038073,1.0423903,1.3631306,0.065189056,0.39515227,0.88286275,0.79757565,0.10842801,0.14062606,0.742739,0.6701021,-0.07741817,-0.21793474,0.50624985,763.1502,797.3993,804.2491,741.39197,855.0183,0.0,0.0,0.38409423828125,0.013671875,0.93927001953125,2.49725341796875,-5.719757080078125,3.050537109375,9978974.358974358,101781831.5018315,55627765.56776557,80.046135,1.0,1.0,1.0,1.0,1.0,55.0,,0 days 00:00:00
2023-11-16 11:16:19.984,1.27782,0.3226783,0.35517204,0.98054564,0.88776493,0.21241252,0.37038073,1.0423903,1.3631306,0.065189056,0.39515227,0.88286275,0.79757565,0.10842801,0.14062606,0.742739,0.6701021,-0.07741817,-0.21793474,0.50624985,763.5531,804.2491,804.2491,740.18317,792.1612,0.0,0.0,0.38409423828125,0.013671875,0.93927001953125,2.49725341796875,-5.719757080078125,3.050537109375,9978974.358974358,101781831.5018315,55627765.56776557,80.046135,1.0,1.0,1.0,1.0,1.0,55.0,,0 days 00:00:00.001000
2023-11-16 11:16:19.984,1.27782,0.3226783,0.35517204,0.98054564,0.88776493,0.21241252,0.37038073,1.0423903,1.3631306,0.065189056,0.39515227,0.88286275,0.79757565,0.10842801,0.14062606,0.742739,0.6701021,-0.07741817,-0.21793474,0.50624985,778.86444,805.05493,818.3516,757.9121,921.50183,0.0,0.0,0.38409423828125,0.013671875,0.93927001953125,2.49725341796875,-5.719757080078125,3.050537109375,9978974.358974358,101781831.5018315,55627765.56776557,80.046135,1.0,1.0,1.0,1.0,1.0,55.0,,0 days 00:00:00
2023-11-16 11:16:19.985,1.27782,0.3226783,0.35517204,0.98054564,0.88776493,0.21241252,0.37038073,1.0423903,1.3631306,0.065189056,0.39515227,0.88286275,0.79757565,0.10842801,0.14062606,0.742739,0.6701021,-0.07741817,-0.21793474,0.50624985,764.7619,800.6227,821.978,757.1062,1050.4396,0.0,0.0,0.38409423828125,0.013671875,0.93927001953125,2.49725341796875,-5.719757080078125,3.050537109375,9978974.358974358,101781831.5018315,55627765.56776557,80.046135,1.0,1.0,1.0,1.0,1.0,55.0,,0 days 00:00:00.001000
2023-11-16 11:16:19.985,1.27782,0.3226783,0.35517204,0.98054564,0.88776493,0.21241252,0.37038073,1.0423903,1.3631306,0.065189056,0.39515227,0.88286275,0.79757565,0.10842801,0.14062606,0.742739,0.6701021,-0.07741817,-0.21793474,0.50624985,747.03296,794.9817,813.1135,724.87177,888.46155,0.0,0.0,0.38409423828125,0.013671875,0.93927001953125,2.49725341796875,-5.719757080078125,3.050537109375,9978974.358974358,101781831.5018315,55627765.56776557,80.046135,1.0,1.0,1.0,1.0,1.0,55.0,,0 days 00:00:00
2023-11-16 11:16:19.986,1.27782,0.3226783,0.35517204,0.98054564,0.88776493,0.21241252,0.37038073,1.0423903,1.3631306,0.065189056,0.39515227,0.88286275,0.79757565,0.10842801,0.14062606,0.742739,0.6701021,-0.07741817,-0.21793474,0.50624985,755.89746,794.9817,807.47253,735.34796,815.12823,0.0,0.0,0.38409423828125,0.013671875,0.93927001953125,2.49725341796875,-5.719757080078125,3.050537109375,9978974.358974358,101781831.5018315,55627765.56776557,80.046135,1.0,1.0,1.0,1.0,1.0,55.0,,0 days 00:00:00.001000
2023-11-16 11:16:19.986,1.27782,0.3226783,0.35517204,0.98054564,0.88776493,0.21241252,0.37038073,1.0423903,1.3631306,0.065189056,0.39515227,0.88286275,0.79757565,0.10842801,0.14062606,0.742739,0.6701021,-0.07741817,-0.21793474,0.50624985,763.1502,797.3993,797.8022,730.9158,827.2161,0.0,0.0,0.38409423828125,0.013671875,0.93927001953125,2.49725341796875,-5.719757080078125,3.050537109375,9978974.358974358,101781831.5018315,55627765.56776557,80.046135,1.0,1.0,1.0,1.0,1.0,55.0,,0 days 00:00:00
2023-11-16 11:16:19.987,1.27782,0.3226783,0.35517204,0.98054564,0.88776493,0.21241252,0.37038073,1.0423903,1.3631306,0.065189056,0.39515227,0.88286275,0.79757565,0.10842801,0.14062606,0.742739,0.6701021,-0.07741817,-0.21793474,0.50624985,743.8095,792.96704,801.02563,722.4542,806.6667,0.0,0.0,0.38409423828125,0.013671875,0.93927001953125,2.49725341796875,-5.719757080078125,3.050537109375,9978974.358974358,101781831.5018315,55627765.56776557,80.046135,1.0,1.0,1.0,1.0,1.0,55.0,,0 days 00:00:00.001000
2023-11-16 11:16:20.056,1.27782,0.3226783,0.35517204,0.98054564,0.88776493,0.21241252,0.37038073,1.0423903,1.3631306,0.065189056,0.39515227,0.88286275,0.79757565,0.10842801,0.14062606,0.742739,0.6701021,-0.07741817,-0.21793474,0.50624985,755.89746,799.81683,799.41394,735.7509,774.83514,0.0,0.0,0.38409423828125,0.013671875,0.93927001953125,2.49725341796875,-5.719757080078125,3.050537109375,9978974.358974358,101781831.5018315,55627765.56776557,80.046135,1.0,1.0,1.0,1.0,1.0,55.0,,0 days 00:00:00.069000
2023-11-16 11:16:20.057,1.27782,0.3226783,0.35517204,0.98054564,0.88776493,0.21241252,0.37038073,1.0423903,1.3631306,0.065189056,0.39515227,0.88286275,0.79757565,0.10842801,0.14062606,0.742739,0.6701021,-0.07741817,-0.21793474,0.50624985,757.9121,800.6227,798.20514,739.7802,818.7546,0.0,0.0,0.38409423828125,0.013671875,0.93927001953125,2.49725341796875,-5.719757080078125,3.050537109375,9978974.358974358,101781831.5018315,55627765.56776557,80.046135,1.0,1.0,1.0,1.0,1.0,55.0,,0 days 00:00:00.001000
2023-11-16 11:16:20.057,1.27782,0.3226783,0.35517204,0.98054564,0.88776493,0.21241252,0.37038073,1.0423903,1.3631306,0.065189056,0.39515227,0.88286275,0.79757565,0.10842801,0.14062606,0.742739,0.6701021,-0.07741817,-0.21793474,0.50624985,738.97437,795.38464,802.23444,740.989,904.9817,0.0,0.0,0.38409423828125,0.013671875,0.93927001953125,2.49725341796875,-5.719757080078125,3.050537109375,9978974.358974358,101781831.5018315,55627765.56776557,80.046135,1.0,1.0,1.0,1.0,1.0,55.0,,0 days 00:00:00
2023-11-16 11:16:20.058,1.27782,0.3226783,0.35517204,0.98054564,0.88776493,0.21241252,0.37038073,1.0423903,1.3631306,0.065189056,0.39515227,0.88286275,0.79757565,0.10842801,0.14062606,0.742739,0.6701021,-0.07741817,-0.21793474,0.50624985,760.32965,798.60803,797.8022,745.0183,836.4835,0.0,0.0,0.38409423828125,0.013671875,0.93927001953125,2.49725341796875,-5.719757080078125,3.050537109375,9978974.358974358,101781831.5018315,55627765.56776557,80.046135,1.0,1.0,1.0,1.0,1.0,55.0,,0 days 00:00:00.001000
2023-11-16 11:16:20.058,1.27782,0.3226783,0.35517204,0.98054564,0.88776493,0.21241252,0.37038073,1.0423903,1.3631306,0.065189056,0.39515227,0.88286275,0.79757565,0.10842801,0.14062606,0.742739,0.6701021,-0.07741817,-0.21793474,0.50624985,759.12085,796.1905,799.011,741.39197,814.3223,0.0,0.0,0.38409423828125,0.013671875,0.93927001953125,2.49725341796875,-5.719757080078125,3.050537109375,9978974.358974358,101781831.5018315,55627765.56776557,80.046135,1.0,1.0,1.0,1.0,1.0,55.0,,0 days 00:00:00
2023-11-16 11:16:20.059,1.27782,0.3226783,0.35517204,0.98054564,0.88776493,0.21241252,0.37038073,1.0423903,1.3631306,0.065189056,0.39515227,0.88286275,0.79757565,0.10842801,0.14062606,0.742739,0.6701021,-0.07741817,-0.21793474,0.50624985,746.63007,788.1319,801.8315,736.9597,850.18317,0.0,0.0,0.38409423828125,0.013671875,0.93927001953125,2.49725341796875,-5.719757080078125,3.050537109375,9978974.358974358,101781831.5018315,55627765.56776557,80.046135,1.0,1.0,1.0,1.0,1.0,55.0,,0 days 00:00:00.001000
2023-11-16 11:16:20.059,1.27782,0.3226783,0.35517204,0.98054564,0.88776493,0.21241252,0.37038073,1.0423903,1.3631306,0.065189056,0.39515227,0.88286275,0.79757565,0.10842801,0.14062606,0.742739,0.6701021,-0.07741817,-0.21793474,0.50624985,742.1978,788.5348,798.60803,745.82416,1006.9231,0.0,0.0,0.38409423828125,0.013671875,0.93927001953125,2.49725341796875,-5.719757080078125,3.050537109375,9978974.358974358,101781831.5018315,55627765.56776557,80.046135,1.0,1.0,1.0,1.0,1.0,55.0,,0 days 00:00:00
2023-11-16 11:16:20.060,1.27782,0.3226783,0.35517204,0.98054564,0.88776493,0.21241252,0.37038073,1.0423903,1.3631306,0.065189056,0.39515227,0.88286275,0.79757565,0.10842801,0.14062606,0.742739,0.6701021,-0.07741817,-0.21793474,0.50624985,725.6777,789.7436,803.0403,763.1502,1134.652,0.0,0.0,0.38409423828125,0.013671875,0.93927001953125,2.49725341796875,-5.719757080078125,3.050537109375,9978974.358974358,101781831.5018315,55627765.56776557,80.046135,1.0,1.0,1.0,1.0,1.0,55.0,,0 days 00:00:00.001000
2023-11-16 11:16:20.060,1.27782,0.3226783,0.35517204,0.98054564,0.88776493,0.21241252,0.37038073,1.0423903,1.3631306,0.065189056,0.39515227,0.88286275,0.79757565,0.10842801,0.14062606,0.742739,0.6701021,-0.07741817,-0.21793474,0.50624985,744.21246,791.75824,804.2491,744.61536,882.8205,0.0,0.0,0.38409423828125,0.013671875,0.93927001953125,2.49725341796875,-5.719757080078125,3.050537109375,9978974.358974358,101781831.5018315,55627765.56776557,80.046135,1.0,1.0,1.0,1.0,1.0,55.0,,0 days 00:00:00
2023-11-16 11:16:20.061,1.27782,0.3226783,0.35517204,0.98054564,0.88776493,0.21241252,0.37038073,1.0423903,1.3631306,0.065189056,0.39515227,0.88286275,0.79757565,0.10842801,0.14062606,0.742739,0.6701021,-0.07741817,-0.21793474,0.50624985,757.9121,795.38464,801.02563,748.6447,749.45056,0.0,0.0,0.38409423828125,0.013671875,0.93927001953125,2.49725341796875,-5.719757080078125,3.050537109375,9978974.358974358,101781831.5018315,55627765.56776557,80.046135,1.0,1.0,1.0,1.0,1.0,55.0,,0 days 00:00:00.001000
2023-11-16 11:16:20.061,1.27782,0.3226783,0.35517204,0.98054564,0.88776493,0.21241252,0.37038073,1.0423903,1.3631306,0.065189056,0.39515227,0.88286275,0.79757565,0.10842801,0.14062606,0.742739,0.6701021,-0.07741817,-0.21793474,0.50624985,755.09155,796.5934,799.41394,750.2564,805.4579,0.0,0.0,0.38409423828125,0.013671875,0.93927001953125,2.49725341796875,-5.719757080078125,3.050537109375,9978974.358974358,101781831.5018315,55627765.56776557,80.046135,1.0,1.0,1.0,1.0,1.0,55.0,,0 days 00:00:00
2023-11-16 11:16:20.062,1.27782,0.3226783,0.35517204,0.98054564,0.88776493,0.21241252,0.37038073,1.0423903,1.3631306,0.065189056,0.39515227,0.88286275,0.79757565,0.10842801,0.14062606,0.742739,0.6701021,-0.07741817,-0.21793474,0.50624985,742.1978,796.5934,794.9817,737.76556,796.5934,0.0,0.0,0.38409423828125,0.013671875,0.93927001953125,2.49725341796875,-5.719757080078125,3.050537109375,9978974.358974358,101781831.5018315,55627765.56776557,80.046135,1.0,1.0,1.0,1.0,1.0,55.0,,0 days 00:00:00.001000
2023-11-16 11:16:20.102,1.27782,0.3226783,0.35517204,0.98054564,0.88776493,0.21241252,0.37038073,1.0423903,1.3631306,0.065189056,0.39515227,0.88286275,0.79757565,0.10842801,0.14062606,0.742739,0.6701021,-0.07741817,-0.21793474,0.50624985,741.79486,790.14655,794.57874,745.82416,743.8095,0.0,0.0,0.38446044921875,0.00946044921875,0.9300537109375,2.594451904296875,-4.02252197265625,-0.725250244140625,10056336.996336997,101804395.6043956,55631794.87179487,80.046135,1.0,1.0,1.0,1.0,1.0,55.0,,0 days 00:00:00.040000
2023-11-16 11:16:20.103,1.27782,0.3226783,0.35517204,0.98054564,0.88776493,0.21241252,0.37038073,1.0423903,1.3631306,0.065189056,0.39515227,0.88286275,0.79757565,0.10842801,0.14062606,0.742739,0.6701021,-0.07741817,-0.21793474,0.50624985,728.49817,779.2674,793.36993,730.10986,768.7912,0.0,0.0,0.38446044921875,0.00946044921875,0.9300537109375,2.594451904296875,-4.02252197265625,-0.725250244140625,10056336.996336997,101804395.6043956,55631794.87179487,80.046135,1.0,1.0,1.0,1.0,1.0,55.0,,0 days 00:00:00.001000
2023-11-16 11:16:20.103,1.27782,0.3226783,0.35517204,0.98054564,0.88776493,0.21241252,0.37038073,1.0423903,1.3631306,0.065189056,0.39515227,0.88286275,0.79757565,0.10842801,0.14062606,0.742739,0.6701021,-0.07741817,-0.21793474,0.50624985,722.4542,787.326,792.1612,727.28937,781.685,0.0,0.0,0.38446044921875,0.00946044921875,0.9300537109375,2.594451904296875,-4.02252197265625,-0.725250244140625,10056336.996336997,101804395.6043956,55631794.87179487,80.046135,1.0,1.0,1.0,1.0,1.0,55.0,,0 days 00:00:00
2023-11-16 11:16:20.104,1.27782,0.35513172,0.38045815,1.0826107,0.88776493,0.22011912,0.36024514,1.0294869,1.3631306,0.10128228,0.40266567,0.8930909,0.79757565,0.16044755,0.13266948,0.7548452,0.6701021,-0.085030794,-0.21785058,0.52371055,747.03296,796.1905,792.96704,740.58606,735.34796,0.0,0.0,0.38446044921875,0.00946044921875,0.9300537109375,2.594451904296875,-4.02252197265625,-0.725250244140625,10056336.996336997,101804395.6043956,55631794.87179487,80.046135,1.0,1.0,1.0,1.0,1.0,55.0,,0 days 00:00:00.001000
2023-11-16 11:16:20.105,1.27782,0.35513172,0.38045815,1.0826107,0.88776493,0.22011912,0.36024514,1.0294869,1.3631306,0.10128228,0.40266567,0.8930909,0.79757565,0.16044755,0.13266948,0.7548452,0.6701021,-0.085030794,-0.21785058,0.52371055,751.8681,794.9817,794.9817,740.18317,773.22345,0.0,0.0,0.38446044921875,0.00946044921875,0.9300537109375,2.594451904296875,-4.02252197265625,-0.725250244140625,10056336.996336997,101804395.6043956,55631794.87179487,80.046135,1.0,1.0,1.0,1.0,1.0,55.0,,0 days 00:00:00.001000
2023-11-16 11:16:20.106,1.27782,0.35513172,0.38045815,1.0826107,0.88776493,0.22011912,0.36024514,1.0294869,1.3631306,0.10128228,0.40266567,0.8930909,0.79757565,0.16044755,0.13266948,0.7548452,0.6701021,-0.085030794,-0.21785058,0.52371055,740.58606,792.5641,795.38464,743.8095,923.91943,0.0,0.0,0.38446044921875,0.00946044921875,0.9300537109375,2.594451904296875,-4.02252197265625,-0.725250244140625,10056336.996336997,101804395.6043956,55631794.87179487,80.046135,1.0,1.0,1.0,1.0,1.0,55.0,,0 days 00:00:00.001000
2023-11-16 11:16:20.106,1.27782,0.35513172,0.38045815,1.0826107,0.88776493,0.22011912,0.36024514,1.0294869,1.3631306,0.10128228,0.40266567,0.8930909,0.79757565,0.16044755,0.13266948,0.7548452,0.6701021,-0.085030794,-0.21785058,0.52371055,722.8571,786.52014,796.99634,741.39197,931.1722,0.0,0.0,0.38446044921875,0.00946044921875,0.9300537109375,2.594451904296875,-4.02252197265625,-0.725250244140625,10056336.996336997,101804395.6043956,55631794.87179487,80.046135,1.0,1.0,1.0,1.0,1.0,55.0,,0 days 00:00:00
2023-11-16 11:16:20.107,1.27782,0.35513172,0.38045815,1.0826107,0.88776493,0.22011912,0.36024514,1.0294869,1.3631306,0.10128228,0.40266567,0.8930909,0.79757565,0.16044755,0.13266948,0.7548452,0.6701021,-0.085030794,-0.21785058,0.52371055,726.08057,787.326,800.2198,731.31866,828.4249,0.0,0.0,0.38446044921875,0.00946044921875,0.9300537109375,2.594451904296875,-4.02252197265625,-0.725250244140625,10056336.996336997,101804395.6043956,55631794.87179487,80.046135,1.0,1.0,1.0,1.0,1.0,55.0,,0 days 00:00:00.001000
2023-11-16 11:16:20.107,1.27782,0.35513172,0.38045815,1.0826107,0.88776493,0.22011912,0.36024514,1.0294869,1.3631306,0.10128228,0.40266567,0.8930909,0.79757565,0.16044755,0.13266948,0.7548452,0.6701021,-0.085030794,-0.21785058,0.52371055,734.94507,792.5641,796.1905,715.6044,735.7509,0.0,0.0,0.38446044921875,0.00946044921875,0.9300537109375,2.594451904296875,-4.02252197265625,-0.725250244140625,10056336.996336997,101804395.6043956,55631794.87179487,80.046135,1.0,1.0,1.0,1.0,1.0,55.0,,0 days 00:00:00
2023-11-16 11:16:20.107,1.27782,0.35513172,0.38045815,1.0826107,0.88776493,0.22011912,0.36024514,1.0294869,1.3631306,0.10128228,0.40266567,0.8930909,0.79757565,0.16044755,0.13266948,0.7548452,0.6701021,-0.085030794,-0.21785058,0.52371055,740.989,790.14655,794.9817,732.9304,861.4652,0.0,0.0,0.38446044921875,0.00946044921875,0.9300537109375,2.594451904296875,-4.02252197265625,-0.725250244140625,10056336.996336997,101804395.6043956,55631794.87179487,80.046135,1.0,1.0,1.0,1.0,1.0,55.0,,0 days 00:00:00
2023-11-16 11:16:20.108,1.27782,0.35513172,0.38045815,1.0826107,0.88776493,0.22011912,0.36024514,1.0294869,1.3631306,0.10128228,0.40266567,0.8930909,0.79757565,0.16044755,0.13266948,0.7548452,0.6701021,-0.085030794,-0.21785058,0.52371055,750.2564,786.1172,798.20514,760.32965,1070.586,0.0,0.0,0.38446044921875,0.00946044921875,0.9300537109375,2.594451904296875,-4.02252197265625,-0.725250244140625,10056336.996336997,101804395.6043956,55631794.87179487,80.046135,1.0,1.0,1.0,1.0,1.0,55.0,,0 days 00:00:00.001000
2023-11-16 11:16:20.108,1.27782,0.35513172,0.38045815,1.0826107,0.88776493,0.22011912,0.36024514,1.0294869,1.3631306,0.10128228,0.40266567,0.8930909,0.79757565,0.16044755,0.13266948,0.7548452,0.6701021,-0.085030794,-0.21785058,0.52371055,727.28937,790.54944,791.75824,754.2857,879.59705,0.0,0.0,0.38446044921875,0.00946044921875,0.9300537109375,2.594451904296875,-4.02252197265625,-0.725250244140625,10056336.996336997,101804395.6043956,55631794.87179487,80.046135,1.0,1.0,1.0,1.0,1.0,55.0,,0 days 00:00:00
2023-11-16 11:16:20.134,1.27782,0.35513172,0.38045815,1.0826107,0.88776493,0.22011912,0.36024514,1.0294869,1.3631306,0.10128228,0.40266567,0.8930909,0.79757565,0.16044755,0.13266948,0.7548452,0.6701021,-0.085030794,-0.21785058,0.52371055,742.1978,794.17584,783.69965,752.27106,810.696,0.0,0.0,0.385986328125,0.01910400390625,0.92913818359375,3.416900634765625,-4.50103759765625,0.216827392578125,10056336.996336997,101804395.6043956,55631794.87179487,80.046135,1.0,1.0,1.0,1.0,1.0,55.0,,0 days 00:00:00.026000
2023-11-16 11:16:20.135,1.27782,0.35513172,0.38045815,1.0826107,0.88776493,0.22011912,0.36024514,1.0294869,1.3631306,0.10128228,0.40266567,0.8930909,0.79757565,0.16044755,0.13266948,0.7548452,0.6701021,-0.085030794,-0.21785058,0.52371055,746.63007,786.52014,794.17584,737.76556,829.2308,0.0,0.0,0.385986328125,0.01910400390625,0.92913818359375,3.416900634765625,-4.50103759765625,0.216827392578125,10056336.996336997,101804395.6043956,55631794.87179487,80.046135,1.0,1.0,1.0,1.0,1.0,55.0,,0 days 00:00:00.001000
2023-11-16 11:16:20.135,1.27782,0.35513172,0.38045815,1.0826107,0.88776493,0.22011912,0.36024514,1.0294869,1.3631306,0.10128228,0.40266567,0.8930909,0.79757565,0.16044755,0.13266948,0.7548452,0.6701021,-0.085030794,-0.21785058,0.52371055,722.0513,786.52014,800.6227,751.06226,804.65204,0.0,0.0,0.385986328125,0.01910400390625,0.92913818359375,3.416900634765625,-4.50103759765625,0.216827392578125,10056336.996336997,101804395.6043956,55631794.87179487,80.046135,1.0,1.0,1.0,1.0,1.0,55.0,,0 days 00:00:00
2023-11-16 11:16:20.135,1.27782,0.35513172,0.38045815,1.0826107,0.88776493,0.22011912,0.36024514,1.0294869,1.3631306,0.10128228,0.40266567,0.8930909,0.79757565,0.16044755,0.13266948,0.7548452,0.6701021,-0.085030794,-0.21785058,0.52371055,749.45056,797.8022,793.7729,778.46155,792.5641,0.0,0.0,0.385986328125,0.01910400390625,0.92913818359375,3.416900634765625,-4.50103759765625,0.216827392578125,10056336.996336997,101804395.6043956,55631794.87179487,80.046135,1.0,1.0,1.0,1.0,1.0,55.0,,0 days 00:00:00
2023-11-16 11:16:20.136,1.27782,0.35513172,0.38045815,1.0826107,0.88776493,0.22011912,0.36024514,1.0294869,1.3631306,0.10128228,0.40266567,0.8930909,0.79757565,0.16044755,0.13266948,0.7548452,0.6701021,-0.085030794,-0.21785058,0.52371055,738.97437,795.38464,794.9817,753.8828,848.1685,0.0,0.0,0.385986328125,0.01910400390625,0.92913818359375,3.416900634765625,-4.50103759765625,0.216827392578125,10056336.996336997,101804395.6043956,55631794.87179487,80.046135,1.0,1.0,1.0,1.0,1.0,55.0,,0 days 00:00:00.001000
2023-11-16 11:16:20.136,1.27782,0.35513172,0.38045815,1.0826107,0.88776493,0.22011912,0.36024514,1.0294869,1.3631306,0.10128228,0.40266567,0.8930909,0.79757565,0.16044755,0.13266948,0.7548452,0.6701021,-0.085030794,-0.21785058,0.52371055,718.8278,787.72894,792.1612,749.85345,953.73627,0.0,0.0,0.385986328125,0.01910400390625,0.92913818359375,3.416900634765625,-4.50103759765625,0.216827392578125,10056336.996336997,101804395.6043956,55631794.87179487,80.046135,1.0,1.0,1.0,1.0,1.0,55.0,,0 days 00:00:00
2023-11-16 11:16:20.137,1.27782,0.35513172,0.38045815,1.0826107,0.88776493,0.22011912,0.36024514,1.0294869,1.3631306,0.10128228,0.40266567,0.8930909,0.79757565,0.16044755,0.13266948,0.7548452,0.6701021,-0.085030794,-0.21785058,0.52371055,733.3333,793.7729,795.38464,753.8828,956.1539,0.0,0.0,0.385986328125,0.01910400390625,0.92913818359375,3.416900634765625,-4.50103759765625,0.216827392578125,10056336.996336997,101804395.6043956,55631794.87179487,80.046135,1.0,1.0,1.0,1.0,1.0,55.0,,0 days 00:00:00.001000
2023-11-16 11:16:20.137,1.27782,0.35513172,0.38045815,1.0826107,0.88776493,0.22011912,0.36024514,1.0294869,1.3631306,0.10128228,0.40266567,0.8930909,0.79757565,0.16044755,0.13266948,0.7548452,0.6701021,-0.085030794,-0.21785058,0.52371055,752.674,798.60803,807.0696,765.16486,848.5714,0.0,0.0,0.385986328125,0.01910400390625,0.92913818359375,3.416900634765625,-4.50103759765625,0.216827392578125,10056336.996336997,101804395.6043956,55631794.87179487,80.046135,1.0,1.0,1.0,1.0,1.0,55.0,,0 days 00:00:00
2023-11-16 11:16:20.138,1.27782,0.35513172,0.38045815,1.0826107,0.88776493,0.22011912,0.36024514,1.0294869,1.3631306,0.10128228,0.40266567,0.8930909,0.79757565,0.16044755,0.13266948,0.7548452,0.6701021,-0.085030794,-0.21785058,0.52371055,751.06226,794.17584,803.44324,776.04395,816.7399,0.0,0.0,0.385986328125,0.01910400390625,0.92913818359375,3.416900634765625,-4.50103759765625,0.216827392578125,10056336.996336997,101804395.6043956,55631794.87179487,80.046135,1.0,1.0,1.0,1.0,1.0,55.0,,0 days 00:00:00.001000
2023-11-16 11:16:20.138,1.27782,0.35513172,0.38045815,1.0826107,0.88776493,0.22011912,0.36024514,1.0294869,1.3631306,0.10128228,0.40266567,0.8930909,0.79757565,0.16044755,0.13266948,0.7548452,0.6701021,-0.085030794,-0.21785058,0.52371055,764.7619,796.1905,794.9817,780.4762,1047.619,0.0,0.0,0.385986328125,0.01910400390625,0.92913818359375,3.416900634765625,-4.50103759765625,0.216827392578125,10056336.996336997,101804395.6043956,55631794.87179487,80.046135,1.0,1.0,1.0,1.0,1.0,55.0,,0 days 00:00:00
2023-11-16 11:16:20.138,1.27782,0.35513172,0.38045815,1.0826107,0.88776493,0.22011912,0.36024514,1.0294869,1.3631306,0.10128228,0.40266567,0.8930909,0.79757565,0.16044755,0.13266948,0.7548452,0.6701021,-0.085030794,-0.21785058,0.52371055,753.0769,792.96704,790.14655,766.3736,1006.52014,0.0,0.0,0.385986328125,0.01910400390625,0.92913818359375,3.416900634765625,-4.50103759765625,0.216827392578125,10056336.996336997,101804395.6043956,55631794.87179487,80.046135,1.0,1.0,1.0,1.0,1.0,55.0,,0 days 00:00:00
2023-11-16 11:16:20.139,1.27782,0.35513172,0.38045815,1.0826107,0.88776493,0.22011912,0.36024514,1.0294869,1.3631306,0.10128228,0.40266567,0.8930909,0.79757565,0.16044755,0.13266948,0.7548452,0.6701021,-0.085030794,-0.21785058,0.52371055,728.49817,788.5348,792.1612,762.74725,771.6117,0.0,0.0,0.385986328125,0.01910400390625,0.92913818359375,3.416900634765625,-4.50103759765625,0.216827392578125,10056336.996336997,101804395.6043956,55631794.87179487,80.046135,1.0,1.0,1.0,1.0,1.0,55.0,,0 days 00:00:00.001000
2023-11-16 11:16:20.174,1.27782,0.35513172,0.38045815,1.0826107,0.88776493,0.22011912,0.36024514,1.0294869,1.3631306,0.10128228,0.40266567,0.8930909,0.79757565,0.16044755,0.13266948,0.7548452,0.6701021,-0.085030794,-0.21785058,0.52371055,729.304,789.34064,796.5934,768.7912,836.4835,0.0,0.0,0.37188720703125,0.01458740234375,0.93377685546875,2.46734619140625,-4.2767333984375,-0.3289794921875,10072454.212454213,101710109.89010988,55522197.8021978,80.046135,1.0,1.0,1.0,1.0,1.0,55.0,,0 days 00:00:00.035000
2023-11-16 11:16:20.175,1.27782,0.35513172,0.38045815,1.0826107,0.88776493,0.22011912,0.36024514,1.0294869,1.3631306,0.10128228,0.40266567,0.8930909,0.79757565,0.16044755,0.13266948,0.7548452,0.6701021,-0.085030794,-0.21785058,0.52371055,718.8278,786.52014,793.36993,750.65936,819.9634,0.0,0.0,0.37188720703125,0.01458740234375,0.93377685546875,2.46734619140625,-4.2767333984375,-0.3289794921875,10072454.212454213,101710109.89010988,55522197.8021978,80.046135,1.0,1.0,1.0,1.0,1.0,55.0,,0 days 00:00:00.001000
2023-11-16 11:16:20.176,1.27782,0.35513172,0.38045815,1.0826107,0.88776493,0.22011912,0.36024514,1.0294869,1.3631306,0.10128228,0.40266567,0.8930909,0.79757565,0.16044755,0.13266948,0.7548452,0.6701021,-0.085030794,-0.21785058,0.52371055,734.1392,792.5641,796.99634,769.19415,759.92676,0.0,0.0,0.37188720703125,0.01458740234375,0.93377685546875,2.46734619140625,-4.2767333984375,-0.3289794921875,10072454.212454213,101710109.89010988,55522197.8021978,80.046135,1.0,1.0,1.0,1.0,1.0,55.0,,0 days 00:00:00.001000
2023-11-16 11:16:20.176,1.27782,0.35513172,0.38045815,1.0826107,0.88776493,0.22011912,0.36024514,1.0294869,1.3631306,0.10128228,0.40266567,0.8930909,0.79757565,0.16044755,0.13266948,0.7548452,0.6701021,-0.085030794,-0.21785058,0.52371055,731.31866,790.9524,796.5934,770.0,783.2967,0.0,0.0,0.37188720703125,0.01458740234375,0.93377685546875,2.46734619140625,-4.2767333984375,-0.3289794921875,10072454.212454213,101710109.89010988,55522197.8021978,80.046135,1.0,1.0,1.0,1.0,1.0,55.0,,0 days 00:00:00
2023-11-16 11:16:20.177,1.27782,0.35513172,0.38045815,1.0826107,0.88776493,0.22011912,0.36024514,1.0294869,1.3631306,0.10128228,0.40266567,0.8930909,0.79757565,0.16044755,0.13266948,0.7548452,0.6701021,-0.085030794,-0.21785058,0.52371055,728.9011,787.72894,804.2491,757.50916,846.1539,0.0,0.0,0.37188720703125,0.01458740234375,0.93377685546875,2.46734619140625,-4.2767333984375,-0.3289794921875,10072454.212454213,101710109.89010988,55522197.8021978,80.046135,1.0,1.0,1.0,1.0,1.0,55.0,,0 days 00:00:00.001000
2023-11-16 11:16:20.177,1.27782,0.36848652,0.46082753,1.0826107,0.88776493,0.22028397,0.36249983,1.0294869,1.3631306,0.12518838,0.40905172,0.8930909,0.79757565,0.1955445,0.13501084,0.7548452,0.6701021,-0.093962185,-0.22342046,0.52371055,734.94507,795.38464,803.8461,767.98535,881.2088,0.0,0.0,0.37188720703125,0.01458740234375,0.93377685546875,2.46734619140625,-4.2767333984375,-0.3289794921875,10072454.212454213,101710109.89010988,55522197.8021978,80.046135,1.0,1.0,1.0,1.0,1.0,55.0,,0 days 00:00:00
2023-11-16 11:16:20.180,1.27782,0.36848652,0.46082753,1.0826107,0.88776493,0.22028397,0.36249983,1.0294869,1.3631306,0.12518838,0.40905172,0.8930909,0.79757565,0.1955445,0.13501084,0.7548452,0.6701021,-0.093962185,-0.22342046,0.52371055,729.304,795.38464,790.14655,759.5238,835.2747,0.0,0.0,0.37188720703125,0.01458740234375,0.93377685546875,2.46734619140625,-4.2767333984375,-0.3289794921875,10072454.212454213,101710109.89010988,55522197.8021978,80.046135,1.0,1.0,1.0,1.0,1.0,55.0,,0 days 00:00:00.003000
2023-11-16 11:16:20.180,1.27782,0.36848652,0.46082753,1.0826107,0.88776493,0.22028397,0.36249983,1.0294869,1.3631306,0.12518838,0.40905172,0.8930909,0.79757565,0.1955445,0.13501084,0.7548452,0.6701021,-0.093962185,-0.22342046,0.52371055,737.3626,796.1905,793.7729,755.09155,745.0183,0.0,0.0,0.37188720703125,0.01458740234375,0.93377685546875,2.46734619140625,-4.2767333984375,-0.3289794921875,10072454.212454213,101710109.89010988,55522197.8021978,80.046135,1.0,1.0,1.0,1.0,1.0,55.0,,0 days 00:00:00
2023-11-16 11:16:20.180,1.27782,0.36848652,0.46082753,1.0826107,0.88776493,0.22028397,0.36249983,1.0294869,1.3631306,0.12518838,0.40905172,0.8930909,0.79757565,0.1955445,0.13501084,0.7548452,0.6701021,-0.093962185,-0.22342046,0.52371055,734.5421,799.81683,791.75824,763.5531,846.55676,0.0,0.0,0.37188720703125,0.01458740234375,0.93377685546875,2.46734619140625,-4.2767333984375,-0.3289794921875,10072454.212454213,101710109.89010988,55522197.8021978,80.046135,1.0,1.0,1.0,1.0,1.0,55.0,,0 days 00:00:00
2023-11-16 11:16:20.181,1.27782,0.36848652,0.46082753,1.0826107,0.88776493,0.22028397,0.36249983,1.0294869,1.3631306,0.12518838,0.40905172,0.8930909,0.79757565,0.1955445,0.13501084,0.7548452,0.6701021,-0.093962185,-0.22342046,0.52371055,734.94507,792.96704,791.75824,779.67035,978.315,0.0,0.0,0.37188720703125,0.01458740234375,0.93377685546875,2.46734619140625,-4.2767333984375,-0.3289794921875,10072454.212454213,101710109.89010988,55522197.8021978,80.046135,1.0,1.0,1.0,1.0,1.0,55.0,,0 days 00:00:00.001000
2023-11-16 11:16:20.181,1.27782,0.36848652,0.46082753,1.0826107,0.88776493,0.22028397,0.36249983,1.0294869,1.3631306,0.12518838,0.40905172,0.8930909,0.79757565,0.1955445,0.13501084,0.7548452,0.6701021,-0.093962185,-0.22342046,0.52371055,761.9414,785.7143,797.8022,774.43225,774.43225,0.0,0.0,0.37188720703125,0.01458740234375,0.93377685546875,2.46734619140625,-4.2767333984375,-0.3289794921875,10072454.212454213,101710109.89010988,55522197.8021978,80.046135,1.0,1.0,1.0,1.0,1.0,55.0,,0 days 00:00:00
2023-11-16 11:16:20.181,1.27782,0.36848652,0.46082753,1.0826107,0.88776493,0.22028397,0.36249983,1.0294869,1.3631306,0.12518838,0.40905172,0.8930909,0.79757565,0.1955445,0.13501084,0.7548452,0.6701021,-0.093962185,-0.22342046,0.52371055,736.1539,786.52014,799.011,763.5531,731.7216,0.0,0.0,0.37188720703125,0.01458740234375,0.93377685546875,2.46734619140625,-4.2767333984375,-0.3289794921875,10072454.212454213,101710109.89010988,55522197.8021978,80.046135,1.0,1.0,1.0,1.0,1.0,55.0,,0 days 00:00:00
2023-11-16 11:16:20.219,1.27782,0.36848652,0.46082753,1.0826107,0.88776493,0.22028397,0.36249983,1.0294869,1.3631306,0.12518838,0.40905172,0.8930909,0.79757565,0.1955445,0.13501084,0.7548452,0.6701021,-0.093962185,-0.22342046,0.52371055,705.9341,784.5055,792.5641,764.7619,858.24176,0.0,0.0,0.374267578125,0.01898193359375,0.9285888671875,2.64678955078125,-3.30474853515625,-1.92901611328125,10072454.212454213,101710109.89010988,55522197.8021978,80.046135,1.0,1.0,1.0,1.0,1.0,55.0,,0 days 00:00:00.038000
2023-11-16 11:16:20.220,1.27782,0.36848652,0.46082753,1.0826107,0.88776493,0.22028397,0.36249983,1.0294869,1.3631306,0.12518838,0.40905172,0.8930909,0.79757565,0.1955445,0.13501084,0.7548452,0.6701021,-0.093962185,-0.22342046,0.52371055,731.31866,786.1172,787.72894,751.4652,820.7692,0.0,0.0,0.374267578125,0.01898193359375,0.9285888671875,2.64678955078125,-3.30474853515625,-1.92901611328125,10072454.212454213,101710109.89010988,55522197.8021978,80.046135,1.0,1.0,1.0,1.0,1.0,55.0,,0 days 00:00:00.001000
2023-11-16 11:16:20.220,1.27782,0.36848652,0.46082753,1.0826107,0.88776493,0.22028397,0.36249983,1.0294869,1.3631306,0.12518838,0.40905172,0.8930909,0.79757565,0.1955445,0.13501084,0.7548452,0.6701021,-0.093962185,-0.22342046,0.52371055,725.2747,787.326,792.5641,775.64105,733.73627,0.0,0.0,0.374267578125,0.01898193359375,0.9285888671875,2.64678955078125,-3.30474853515625,-1.92901611328125,10072454.212454213,101710109.89010988,55522197.8021978,80.046135,1.0,1.0,1.0,1.0,1.0,55.0,,0 days 00:00:00
2023-11-16 11:16:20.221,1.27782,0.36848652,0.46082753,1.0826107,0.88776493,0.22028397,0.36249983,1.0294869,1.3631306,0.12518838,0.40905172,0.8930909,0.79757565,0.1955445,0.13501084,0.7548452,0.6701021,-0.093962185,-0.22342046,0.52371055,717.2161,786.1172,792.5641,787.72894,736.1539,0.0,0.0,0.374267578125,0.01898193359375,0.9285888671875,2.64678955078125,-3.30474853515625,-1.92901611328125,10072454.212454213,101710109.89010988,55522197.8021978,80.046135,1.0,1.0,1.0,1.0,1.0,55.0,,0 days 00:00:00.001000
2023-11-16 11:16:20.221,1.27782,0.36848652,0.46082753,1.0826107,0.88776493,0.22028397,0.36249983,1.0294869,1.3631306,0.12518838,0.40905172,0.8930909,0.79757565,0.1955445,0.13501084,0.7548452,0.6701021,-0.093962185,-0.22342046,0.52371055,725.2747,787.326,796.1905,770.0,914.65204,0.0,0.0,0.374267578125,0.01898193359375,0.9285888671875,2.64678955078125,-3.30474853515625,-1.92901611328125,10072454.212454213,101710109.89010988,55522197.8021978,80.046135,1.0,1.0,1.0,1.0,1.0,55.0,,0 days 00:00:00
2023-11-16 11:16:20.222,1.27782,0.36848652,0.46082753,1.0826107,0.88776493,0.22028397,0.36249983,1.0294869,1.3631306,0.12518838,0.40905172,0.8930909,0.79757565,0.1955445,0.13501084,0.7548452,0.6701021,-0.093962185,-0.22342046,0.52371055,734.5421,790.9524,798.60803,770.0,935.2015,0.0,0.0,0.374267578125,0.01898193359375,0.9285888671875,2.64678955078125,-3.30474853515625,-1.92901611328125,10072454.212454213,101710109.89010988,55522197.8021978,80.046135,1.0,1.0,1.0,1.0,1.0,55.0,,0 days 00:00:00.001000
2023-11-16 11:16:20.222,1.27782,0.36848652,0.46082753,1.0826107,0.88776493,0.22028397,0.36249983,1.0294869,1.3631306,0.12518838,0.40905172,0.8930909,0.79757565,0.1955445,0.13501084,0.7548452,0.6701021,-0.093962185,-0.22342046,0.52371055,734.1392,793.7729,800.6227,764.35895,823.9927,0.0,0.0,0.374267578125,0.01898193359375,0.9285888671875,2.64678955078125,-3.30474853515625,-1.92901611328125,10072454.212454213,101710109.89010988,55522197.8021978,80.046135,1.0,1.0,1.0,1.0,1.0,55.0,,0 days 00:00:00
2023-11-16 11:16:20.222,1.27782,0.36848652,0.46082753,1.0826107,0.88776493,0.22028397,0.36249983,1.0294869,1.3631306,0.12518838,0.40905172,0.8930909,0.79757565,0.1955445,0.13501084,0.7548452,0.6701021,-0.093962185,-0.22342046,0.52371055,717.2161,792.5641,796.99634,759.5238,792.5641,0.0,0.0,0.374267578125,0.01898193359375,0.9285888671875,2.64678955078125,-3.30474853515625,-1.92901611328125,10072454.212454213,101710109.89010988,55522197.8021978,80.046135,1.0,1.0,1.0,1.0,1.0,55.0,,0 days 00:00:00
2023-11-16 11:16:20.223,1.27782,0.36848652,0.46082753,1.0826107,0.88776493,0.22028397,0.36249983,1.0294869,1.3631306,0.12518838,0.40905172,0.8930909,0.79757565,0.1955445,0.13501084,0.7548452,0.6701021,-0.093962185,-0.22342046,0.52371055,727.6923,791.75824,784.10254,759.12085,969.0476,0.0,0.0,0.374267578125,0.01898193359375,0.9285888671875,2.64678955078125,-3.30474853515625,-1.92901611328125,10072454.212454213,101710109.89010988,55522197.8021978,80.046135,1.0,1.0,1.0,1.0,1.0,55.0,,0 days 00:00:00.001000
2023-11-16 11:16:20.223,1.27782,0.36848652,0.46082753,1.0826107,0.88776493,0.22028397,0.36249983,1.0294869,1.3631306,0.12518838,0.40905172,0.8930909,0.79757565,0.1955445,0.13501084,0.7548452,0.6701021,-0.093962185,-0.22342046,0.52371055,735.7509,790.54944,783.2967,759.92676,1027.4725,0.0,0.0,0.374267578125,0.01898193359375,0.9285888671875,2.64678955078125,-3.30474853515625,-1.92901611328125,10072454.212454213,101710109.89010988,55522197.8021978,80.046135,1.0,1.0,1.0,1.0,1.0,55.0,,0 days 00:00:00
2023-11-16 11:16:20.224,1.27782,0.36848652,0.46082753,1.0826107,0.88776493,0.22028397,0.36249983,1.0294869,1.3631306,0.12518838,0.40905172,0.8930909,0.79757565,0.1955445,0.13501084,0.7548452,0.6701021,-0.093962185,-0.22342046,0.52371055,736.55676,790.14655,792.5641,776.8498,777.25275,0.0,0.0,0.374267578125,0.01898193359375,0.9285888671875,2.64678955078125,-3.30474853515625,-1.92901611328125,10072454.212454213,101710109.89010988,55522197.8021978,80.046135,1.0,1.0,1.0,1.0,1.0,55.0,,0 days 00:00:00.001000
2023-11-16 11:16:20.224,1.27782,0.36848652,0.46082753,1.0826107,0.88776493,0.22028397,0.36249983,1.0294869,1.3631306,0.12518838,0.40905172,0.8930909,0.79757565,0.1955445,0.13501084,0.7548452,0.6701021,-0.093962185,-0.22342046,0.52371055,730.5128,789.7436,792.96704,776.4469,747.4359,0.0,0.0,0.374267578125,0.01898193359375,0.9285888671875,2.64678955078125,-3.30474853515625,-1.92901611328125,10072454.212454213,101710109.89010988,55522197.8021978,80.046135,1.0,1.0,1.0,1.0,1.0,55.0,,0 days 00:00:00
2023-11-16 11:16:20.251,1.27782,0.36848652,0.46082753,1.0826107,0.88776493,0.22028397,0.36249983,1.0294869,1.3631306,0.12518838,0.40905172,0.8930909,0.79757565,0.1955445,0.13501084,0.7548452,0.6701021,-0.093962185,-0.22342046,0.52371055,707.9487,789.7436,788.93774,752.27106,790.14655,0.0,0.0,0.374267578125,0.01898193359375,0.9285888671875,2.64678955078125,-3.30474853515625,-1.92901611328125,10016849.816849817,101673846.15384614,55568131.86813187,80.046135,1.0,1.0,1.0,1.0,1.0,55.0,,0 days 00:00:00.027000
2023-11-16 11:16:20.252,1.27782,0.36848652,0.46082753,1.0826107,0.88776493,0.22028397,0.36249983,1.0294869,1.3631306,0.12518838,0.40905172,0.8930909,0.79757565,0.1955445,0.13501084,0.7548452,0.6701021,-0.093962185,-0.22342046,0.52371055,721.2454,794.57874,792.1612,758.71796,743.4066,0.0,0.0,0.374267578125,0.01898193359375,0.9285888671875,2.64678955078125,-3.30474853515625,-1.92901611328125,10016849.816849817,101673846.15384614,55568131.86813187,80.046135,1.0,1.0,1.0,1.0,1.0,55.0,,0 days 00:00:00.001000
2023-11-16 11:16:20.253,1.27782,0.36848652,0.46082753,1.0826107,0.88776493,0.22028397,0.36249983,1.0294869,1.3631306,0.12518838,0.40905172,0.8930909,0.79757565,0.1955445,0.13501084,0.7548452,0.6701021,-0.093962185,-0.22342046,0.52371055,732.9304,801.8315,792.5641,782.0879,695.8608,0.0,0.0,0.374267578125,0.01898193359375,0.9285888671875,2.64678955078125,-3.30474853515625,-1.92901611328125,10016849.816849817,101673846.15384614,55568131.86813187,80.046135,1.0,1.0,1.0,1.0,1.0,55.0,,0 days 00:00:00.001000
2023-11-16 11:16:20.253,1.27782,0.36848652,0.46082753,1.0826107,0.88776493,0.22028397,0.36249983,1.0294869,1.3631306,0.12518838,0.40905172,0.8930909,0.79757565,0.1955445,0.13501084,0.7548452,0.6701021,-0.093962185,-0.22342046,0.52371055,735.7509,806.6667,795.38464,798.60803,799.81683,0.0,0.0,0.374267578125,0.01898193359375,0.9285888671875,2.64678955078125,-3.30474853515625,-1.92901611328125,10016849.816849817,101673846.15384614,55568131.86813187,80.046135,1.0,1.0,1.0,1.0,1.0,55.0,,0 days 00:00:00
2023-11-16 11:16:20.253,1.27782,0.36848652,0.46082753,1.0826107,0.88776493,0.22028397,0.36249983,1.0294869,1.3631306,0.12518838,0.40905172,0.8930909,0.79757565,0.1955445,0.13501084,0.7548452,0.6701021,-0.093962185,-0.22342046,0.52371055,735.34796,802.6374,797.3993,790.14655,821.978,0.0,0.0,0.374267578125,0.01898193359375,0.9285888671875,2.64678955078125,-3.30474853515625,-1.92901611328125,10016849.816849817,101673846.15384614,55568131.86813187,80.046135,1.0,1.0,1.0,1.0,1.0,55.0,,0 days 00:00:00
2023-11-16 11:16:20.254,1.27782,0.36848652,0.46082753,1.0826107,0.88776493,0.22028397,0.36249983,1.0294869,1.3631306,0.12518838,0.40905172,0.8930909,0.79757565,0.1955445,0.13501084,0.7548452,0.6701021,-0.093962185,-0.22342046,0.52371055,731.31866,796.99634,784.5055,788.5348,782.49084,0.0,0.0,0.374267578125,0.01898193359375,0.9285888671875,2.64678955078125,-3.30474853515625,-1.92901611328125,10016849.816849817,101673846.15384614,55568131.86813187,80.046135,1.0,1.0,1.0,1.0,1.0,55.0,,0 days 00:00:00.001000
2023-11-16 11:16:20.254,1.27782,0.36848652,0.46082753,1.0826107,0.88776493,0.22028397,0.36249983,1.0294869,1.3631306,0.12518838,0.40905172,0.8930909,0.79757565,0.1955445,0.13501084,0.7548452,0.6701021,-0.093962185,-0.22342046,0.52371055,720.4396,799.41394,790.14655,808.2784,828.4249,0.0,0.0,0.374267578125,0.01898193359375,0.9285888671875,2.64678955078125,-3.30474853515625,-1.92901611328125,10016849.816849817,101673846.15384614,55568131.86813187,80.046135,1.0,1.0,1.0,1.0,1.0,55.0,,0 days 00:00:00
2023-11-16 11:16:20.254,1.27782,0.37042737,0.5777426,1.0826107,0.88776493,0.21824174,0.37603927,1.0294869,1.3631306,0.12518838,0.4127049,0.8930909,0.79757565,0.21178459,0.14975755,0.7548452,0.6701021,-0.10168889,-0.2271592,0.52371055,730.9158,799.011,794.17584,808.68134,936.0073,0.0,0.0,0.374267578125,0.01898193359375,0.9285888671875,2.64678955078125,-3.30474853515625,-1.92901611328125,10016849.816849817,101673846.15384614,55568131.86813187,80.046135,1.0,1.0,1.0,1.0,1.0,55.0,,0 days 00:00:00
2023-11-16 11:16:20.256,1.27782,0.37042737,0.5777426,1.0826107,0.88776493,0.21824174,0.37603927,1.0294869,1.3631306,0.12518838,0.4127049,0.8930909,0.79757565,0.21178459,0.14975755,0.7548452,0.6701021,-0.10168889,-0.2271592,0.52371055,742.1978,798.20514,782.8938,821.978,980.32965,0.0,0.0,0.374267578125,0.01898193359375,0.9285888671875,2.64678955078125,-3.30474853515625,-1.92901611328125,10016849.816849817,101673846.15384614,55568131.86813187,80.046135,1.0,1.0,1.0,1.0,1.0,55.0,,0 days 00:00:00.002000
2023-11-16 11:16:20.257,1.27782,0.37042737,0.5777426,1.0826107,0.88776493,0.21824174,0.37603927,1.0294869,1.3631306,0.12518838,0.4127049,0.8930909,0.79757565,0.21178459,0.14975755,0.7548452,0.6701021,-0.10168889,-0.2271592,0.52371055,740.58606,794.9817,788.5348,794.57874,800.2198,0.0,0.0,0.374267578125,0.01898193359375,0.9285888671875,2.64678955078125,-3.30474853515625,-1.92901611328125,10016849.816849817,101673846.15384614,55568131.86813187,80.046135,1.0,1.0,1.0,1.0,1.0,55.0,,0 days 00:00:00.001000
2023-11-16 11:16:20.257,1.27782,0.37042737,0.5777426,1.0826107,0.88776493,0.21824174,0.37603927,1.0294869,1.3631306,0.12518838,0.4127049,0.8930909,0.79757565,0.21178459,0.14975755,0.7548452,0.6701021,-0.10168889,-0.2271592,0.52371055,750.2564,786.1172,791.3553,805.05493,723.2601,0.0,0.0,0.374267578125,0.01898193359375,0.9285888671875,2.64678955078125,-3.30474853515625,-1.92901611328125,10016849.816849817,101673846.15384614,55568131.86813187,80.046135,1.0,1.0,1.0,1.0,1.0,55.0,,0 days 00:00:00
2023-11-16 11:16:20.258,1.27782,0.37042737,0.5777426,1.0826107,0.88776493,0.21824174,0.37603927,1.0294869,1.3631306,0.12518838,0.4127049,0.8930909,0.79757565,0.21178459,0.14975755,0.7548452,0.6701021,-0.10168889,-0.2271592,0.52371055,735.7509,780.87915,798.60803,832.8571,779.67035,0.0,0.0,0.374267578125,0.01898193359375,0.9285888671875,2.64678955078125,-3.30474853515625,-1.92901611328125,10016849.816849817,101673846.15384614,55568131.86813187,80.046135,1.0,1.0,1.0,1.0,1.0,55.0,,0 days 00:00:00.001000
2023-11-16 11:16:20.318,1.27782,0.37042737,0.5777426,1.0826107,0.88776493,0.21824174,0.37603927,1.0294869,1.3631306,0.12518838,0.4127049,0.8930909,0.79757565,0.21178459,0.14975755,0.7548452,0.6701021,-0.10168889,-0.2271592,0.52371055,722.4542,781.28204,801.02563,801.02563,820.7692,0.0,0.0,0.37213134765625,0.01043701171875,0.92938232421875,2.325286865234375,-5.106658935546875,-0.179443359375,10016849.816849817,101673846.15384614,55568131.86813187,80.046135,1.0,1.0,1.0,1.0,1.0,55.0,,0 days 00:00:00.060000
2023-11-16 11:16:20.319,1.27782,0.37042737,0.5777426,1.0826107,0.88776493,0.21824174,0.37603927,1.0294869,1.3631306,0.12518838,0.4127049,0.8930909,0.79757565,0.21178459,0.14975755,0.7548452,0.6701021,-0.10168889,-0.2271592,0.52371055,742.6007,782.49084,792.1612,803.0403,766.77655,0.0,0.0,0.37213134765625,0.01043701171875,0.92938232421875,2.325286865234375,-5.106658935546875,-0.179443359375,10016849.816849817,101673846.15384614,55568131.86813187,80.046135,1.0,1.0,1.0,1.0,1.0,55.0,,0 days 00:00:00.001000
2023-11-16 11:16:20.320,1.27782,0.37042737,0.5777426,1.0826107,0.88776493,0.21824174,0.37603927,1.0294869,1.3631306,0.12518838,0.4127049,0.8930909,0.79757565,0.21178459,0.14975755,0.7548452,0.6701021,-0.10168889,-0.2271592,0.52371055,747.4359,793.36993,789.34064,813.91943,793.7729,0.0,0.0,0.37213134765625,0.01043701171875,0.92938232421875,2.325286865234375,-5.106658935546875,-0.179443359375,10016849.816849817,101673846.15384614,55568131.86813187,80.046135,1.0,1.0,1.0,1.0,1.0,55.0,,0 days 00:00:00.001000
2023-11-16 11:16:20.320,1.27782,0.37042737,0.5777426,1.0826107,0.88776493,0.21824174,0.37603927,1.0294869,1.3631306,0.12518838,0.4127049,0.8930909,0.79757565,0.21178459,0.14975755,0.7548452,0.6701021,-0.10168889,-0.2271592,0.52371055,747.4359,795.38464,790.14655,798.60803,784.5055,0.0,0.0,0.37213134765625,0.01043701171875,0.92938232421875,2.325286865234375,-5.106658935546875,-0.179443359375,10016849.816849817,101673846.15384614,55568131.86813187,80.046135,1.0,1.0,1.0,1.0,1.0,55.0,,0 days 00:00:00
2023-11-16 11:16:20.321,1.27782,0.37042737,0.5777426,1.0826107,0.88776493,0.21824174,0.37603927,1.0294869,1.3631306,0.12518838,0.4127049,0.8930909,0.79757565,0.21178459,0.14975755,0.7548452,0.6701021,-0.10168889,-0.2271592,0.52371055,748.24176,795.38464,790.9524,808.68134,716.0073,0.0,0.0,0.37213134765625,0.01043701171875,0.92938232421875,2.325286865234375,-5.106658935546875,-0.179443359375,10016849.816849817,101673846.15384614,55568131.86813187,80.046135,1.0,1.0,1.0,1.0,1.0,55.0,,0 days 00:00:00.001000
2023-11-16 11:16:20.321,1.27782,0.37042737,0.5777426,1.0826107,0.88776493,0.21824174,0.37603927,1.0294869,1.3631306,0.12518838,0.4127049,0.8930909,0.79757565,0.21178459,0.14975755,0.7548452,0.6701021,-0.10168889,-0.2271592,0.52371055,737.76556,794.57874,791.75824,813.5165,782.8938,0.0,0.0,0.37213134765625,0.01043701171875,0.92938232421875,2.325286865234375,-5.106658935546875,-0.179443359375,10016849.816849817,101673846.15384614,55568131.86813187,80.046135,1.0,1.0,1.0,1.0,1.0,55.0,,0 days 00:00:00
2023-11-16 11:16:20.322,1.27782,0.37042737,0.5777426,1.0826107,0.88776493,0.21824174,0.37603927,1.0294869,1.3631306,0.12518838,0.4127049,0.8930909,0.79757565,0.21178459,0.14975755,0.7548452,0.6701021,-0.10168889,-0.2271592,0.52371055,727.6923,792.1612,789.34064,796.5934,819.5604,0.0,0.0,0.37213134765625,0.01043701171875,0.92938232421875,2.325286865234375,-5.106658935546875,-0.179443359375,10016849.816849817,101673846.15384614,55568131.86813187,80.046135,1.0,1.0,1.0,1.0,1.0,55.0,,0 days 00:00:00.001000
2023-11-16 11:16:20.322,1.27782,0.37042737,0.5777426,1.0826107,0.88776493,0.21824174,0.37603927,1.0294869,1.3631306,0.12518838,0.4127049,0.8930909,0.79757565,0.21178459,0.14975755,0.7548452,0.6701021,-0.10168889,-0.2271592,0.52371055,735.7509,794.17584,794.17584,819.15753,1024.652,0.0,0.0,0.37213134765625,0.01043701171875,0.92938232421875,2.325286865234375,-5.106658935546875,-0.179443359375,10016849.816849817,101673846.15384614,55568131.86813187,80.046135,1.0,1.0,1.0,1.0,1.0,55.0,,0 days 00:00:00
2023-11-16 11:16:20.323,1.27782,0.37042737,0.5777426,1.0826107,0.88776493,0.21824174,0.37603927,1.0294869,1.3631306,0.12518838,0.4127049,0.8930909,0.79757565,0.21178459,0.14975755,0.7548452,0.6701021,-0.10168889,-0.2271592,0.52371055,745.82416,791.75824,794.17584,853.4066,1129.414,0.0,0.0,0.37213134765625,0.01043701171875,0.92938232421875,2.325286865234375,-5.106658935546875,-0.179443359375,10016849.816849817,101673846.15384614,55568131.86813187,80.046135,1.0,1.0,1.0,1.0,1.0,55.0,,0 days 00:00:00.001000
2023-11-16 11:16:20.323,1.27782,0.37042737,0.5777426,1.0826107,0.88776493,0.21824174,0.37603927,1.0294869,1.3631306,0.12518838,0.4127049,0.8930909,0.79757565,0.21178459,0.14975755,0.7548452,0.6701021,-0.10168889,-0.2271592,0.52371055,743.00366,789.7436,785.31134,810.293,857.4359,0.0,0.0,0.37213134765625,0.01043701171875,0.92938232421875,2.325286865234375,-5.106658935546875,-0.179443359375,10016849.816849817,101673846.15384614,55568131.86813187,80.046135,1.0,1.0,1.0,1.0,1.0,55.0,,0 days 00:00:00
2023-11-16 11:16:20.324,1.27782,0.37042737,0.5777426,1.0826107,0.88776493,0.21824174,0.37603927,1.0294869,1.3631306,0.12518838,0.4127049,0.8930909,0.79757565,0.21178459,0.14975755,0.7548452,0.6701021,-0.10168889,-0.2271592,0.52371055,743.00366,791.3553,783.69965,794.9817,726.08057,0.0,0.0,0.37213134765625,0.01043701171875,0.92938232421875,2.325286865234375,-5.106658935546875,-0.179443359375,10016849.816849817,101673846.15384614,55568131.86813187,80.046135,1.0,1.0,1.0,1.0,1.0,55.0,,0 days 00:00:00.001000
2023-11-16 11:16:20.324,1.27782,0.37042737,0.5777426,1.0826107,0.88776493,0.21824174,0.37603927,1.0294869,1.3631306,0.12518838,0.4127049,0.8930909,0.79757565,0.21178459,0.14975755,0.7548452,0.6701021,-0.10168889,-0.2271592,0.52371055,747.03296,791.75824,791.75824,807.47253,746.2271,0.0,0.0,0.37213134765625,0.01043701171875,0.92938232421875,2.325286865234375,-5.106658935546875,-0.179443359375,10016849.816849817,101673846.15384614,55568131.86813187,80.046135,1.0,1.0,1.0,1.0,1.0,55.0,,0 days 00:00:00
2023-11-16 11:16:20.353,1.27782,0.37042737,0.5777426,1.0826107,0.88776493,0.21824174,0.37603927,1.0294869,1.3631306,0.12518838,0.4127049,0.8930909,0.79757565,0.21178459,0.14975755,0.7548452,0.6701021,-0.10168889,-0.2271592,0.52371055,743.8095,795.38464,782.0879,800.6227,717.2161,0.0,0.0,0.36212158203125,0.011474609375,0.92803955078125,3.09539794921875,-2.930908203125,-1.0467529296875,9934652.014652014,101633553.1135531,55534285.71428572,80.046135,1.0,1.0,1.0,1.0,1.0,55.0,,0 days 00:00:00.029000
2023-11-16 11:16:20.354,1.27782,0.37042737,0.5777426,1.0826107,0.88776493,0.21824174,0.37603927,1.0294869,1.3631306,0.12518838,0.4127049,0.8930909,0.79757565,0.21178459,0.14975755,0.7548452,0.6701021,-0.10168889,-0.2271592,0.52371055,728.0952,794.57874,790.54944,808.2784,702.3077,0.0,0.0,0.36212158203125,0.011474609375,0.92803955078125,3.09539794921875,-2.930908203125,-1.0467529296875,9934652.014652014,101633553.1135531,55534285.71428572,80.046135,1.0,1.0,1.0,1.0,1.0,55.0,,0 days 00:00:00.001000
2023-11-16 11:16:20.354,1.27782,0.37042737,0.5777426,1.0826107,0.88776493,0.21824174,0.37603927,1.0294869,1.3631306,0.12518838,0.4127049,0.8930909,0.79757565,0.21178459,0.14975755,0.7548452,0.6701021,-0.10168889,-0.2271592,0.52371055,732.52747,790.9524,812.71063,825.6044,700.696,0.0,0.0,0.36212158203125,0.011474609375,0.92803955078125,3.09539794921875,-2.930908203125,-1.0467529296875,9934652.014652014,101633553.1135531,55534285.71428572,80.046135,1.0,1.0,1.0,1.0,1.0,55.0,,0 days 00:00:00
2023-11-16 11:16:20.355,1.27782,0.37042737,0.5777426,1.0826107,0.88776493,0.21824174,0.37603927,1.0294869,1.3631306,0.12518838,0.4127049,0.8930909,0.79757565,0.21178459,0.14975755,0.7548452,0.6701021,-0.10168889,-0.2271592,0.52371055,747.03296,793.36993,814.3223,840.5128,732.52747,0.0,0.0,0.36212158203125,0.011474609375,0.92803955078125,3.09539794921875,-2.930908203125,-1.0467529296875,9934652.014652014,101633553.1135531,55534285.71428572,80.046135,1.0,1.0,1.0,1.0,1.0,55.0,,0 days 00:00:00.001000
2023-11-16 11:16:20.355,1.27782,0.37042737,0.5777426,1.0826107,0.88776493,0.21824174,0.37603927,1.0294869,1.3631306,0.12518838,0.4127049,0.8930909,0.79757565,0.21178459,0.14975755,0.7548452,0.6701021,-0.10168889,-0.2271592,0.52371055,743.4066,799.011,805.4579,828.4249,718.022,0.0,0.0,0.36212158203125,0.011474609375,0.92803955078125,3.09539794921875,-2.930908203125,-1.0467529296875,9934652.014652014,101633553.1135531,55534285.71428572,80.046135,1.0,1.0,1.0,1.0,1.0,55.0,,0 days 00:00:00
2023-11-16 11:16:20.356,1.27782,0.37042737,0.5777426,1.0826107,0.88776493,0.21824174,0.37603927,1.0294869,1.3631306,0.12518838,0.4127049,0.8930909,0.79757565,0.21178459,0.14975755,0.7548452,0.6701021,-0.10168889,-0.2271592,0.52371055,748.24176,801.02563,810.293,839.707,754.2857,0.0,0.0,0.36212158203125,0.011474609375,0.92803955078125,3.09539794921875,-2.930908203125,-1.0467529296875,9934652.014652014,101633553.1135531,55534285.71428572,80.046135,1.0,1.0,1.0,1.0,1.0,55.0,,0 days 00:00:00.001000
2023-11-16 11:16:20.356,1.27782,0.37042737,0.5777426,1.0826107,0.88776493,0.21824174,0.37603927,1.0294869,1.3631306,0.12518838,0.4127049,0.8930909,0.79757565,0.21178459,0.14975755,0.7548452,0.6701021,-0.10168889,-0.2271592,0.52371055,758.71796,801.4286,808.2784,850.58606,917.0696,0.0,0.0,0.36212158203125,0.011474609375,0.92803955078125,3.09539794921875,-2.930908203125,-1.0467529296875,9934652.014652014,101633553.1135531,55534285.71428572,80.046135,1.0,1.0,1.0,1.0,1.0,55.0,,0 days 00:00:00
2023-11-16 11:16:20.356,1.27782,0.37042737,0.5777426,1.0826107,0.88776493,0.21824174,0.37603927,1.0294869,1.3631306,0.12518838,0.4127049,0.8930909,0.79757565,0.21178459,0.14975755,0.7548452,0.6701021,-0.10168889,-0.2271592,0.52371055,761.53845,801.02563,797.3993,830.0366,993.22345,0.0,0.0,0.36212158203125,0.011474609375,0.92803955078125,3.09539794921875,-2.930908203125,-1.0467529296875,9934652.014652014,101633553.1135531,55534285.71428572,80.046135,1.0,1.0,1.0,1.0,1.0,55.0,,0 days 00:00:00
2023-11-16 11:16:20.356,1.27782,0.37042737,0.5777426,1.0826107,0.88776493,0.21824174,0.37603927,1.0294869,1.3631306,0.12518838,0.4127049,0.8930909,0.79757565,0.21178459,0.14975755,0.7548452,0.6701021,-0.10168889,-0.2271592,0.52371055,745.82416,796.99634,806.6667,823.1868,848.5714,0.0,0.0,0.36212158203125,0.011474609375,0.92803955078125,3.09539794921875,-2.930908203125,-1.0467529296875,9934652.014652014,101633553.1135531,55534285.71428572,80.046135,1.0,1.0,1.0,1.0,1.0,55.0,,0 days 00:00:00
2023-11-16 11:16:20.357,1.27782,0.37072173,0.6885001,1.0826107,0.88776493,0.21697791,0.39053172,1.0294869,1.3631306,0.12518838,0.41335762,0.8930909,0.79757565,0.21375069,0.17020355,0.7548452,0.6701021,-0.10704801,-0.22394559,0.52371055,740.58606,800.6227,807.47253,835.6777,798.20514,0.0,0.0,0.36212158203125,0.011474609375,0.92803955078125,3.09539794921875,-2.930908203125,-1.0467529296875,9934652.014652014,101633553.1135531,55534285.71428572,80.046135,1.0,1.0,1.0,1.0,1.0,55.0,,0 days 00:00:00.001000
2023-11-16 11:16:20.358,1.27782,0.37072173,0.6885001,1.0826107,0.88776493,0.21697791,0.39053172,1.0294869,1.3631306,0.12518838,0.41335762,0.8930909,0.79757565,0.21375069,0.17020355,0.7548452,0.6701021,-0.10704801,-0.22394559,0.52371055,741.79486,805.4579,803.44324,838.0952,930.3663,0.0,0.0,0.36212158203125,0.011474609375,0.92803955078125,3.09539794921875,-2.930908203125,-1.0467529296875,9934652.014652014,101633553.1135531,55534285.71428572,80.046135,1.0,1.0,1.0,1.0,1.0,55.0,,0 days 00:00:00.001000
2023-11-16 11:16:20.358,1.27782,0.37072173,0.6885001,1.0826107,0.88776493,0.21697791,0.39053172,1.0294869,1.3631306,0.12518838,0.41335762,0.8930909,0.79757565,0.21375069,0.17020355,0.7548452,0.6701021,-0.10704801,-0.22394559,0.52371055,728.9011,804.2491,799.011,822.381,909.41394,0.0,0.0,0.36212158203125,0.011474609375,0.92803955078125,3.09539794921875,-2.930908203125,-1.0467529296875,9934652.014652014,101633553.1135531,55534285.71428572,80.046135,1.0,1.0,1.0,1.0,1.0,55.0,,0 days 00:00:00
2023-11-16 11:16:20.419,1.27782,0.37072173,0.6885001,1.0826107,0.88776493,0.21697791,0.39053172,1.0294869,1.3631306,0.12518838,0.41335762,0.8930909,0.79757565,0.21375069,0.17020355,0.7548452,0.6701021,-0.10704801,-0.22394559,0.52371055,718.022,795.78754,799.41394,827.619,731.7216,0.0,0.0,0.3731689453125,0.00970458984375,0.92730712890625,2.594451904296875,-6.258087158203125,0.949554443359375,9934652.014652014,101633553.1135531,55534285.71428572,80.046135,1.0,1.0,1.0,1.0,1.0,55.0,,0 days 00:00:00.061000
2023-11-16 11:16:20.420,1.27782,0.37072173,0.6885001,1.0826107,0.88776493,0.21697791,0.39053172,1.0294869,1.3631306,0.12518838,0.41335762,0.8930909,0.79757565,0.21375069,0.17020355,0.7548452,0.6701021,-0.10704801,-0.22394559,0.52371055,714.7985,793.7729,805.8608,825.2015,731.31866,0.0,0.0,0.3731689453125,0.00970458984375,0.92730712890625,2.594451904296875,-6.258087158203125,0.949554443359375,9934652.014652014,101633553.1135531,55534285.71428572,80.046135,1.0,1.0,1.0,1.0,1.0,55.0,,0 days 00:00:00.001000
2023-11-16 11:16:20.420,1.27782,0.37072173,0.6885001,1.0826107,0.88776493,0.21697791,0.39053172,1.0294869,1.3631306,0.12518838,0.41335762,0.8930909,0.79757565,0.21375069,0.17020355,0.7548452,0.6701021,-0.10704801,-0.22394559,0.52371055,726.4835,791.75824,814.3223,815.12823,791.75824,0.0,0.0,0.3731689453125,0.00970458984375,0.92730712890625,2.594451904296875,-6.258087158203125,0.949554443359375,9934652.014652014,101633553.1135531,55534285.71428572,80.046135,1.0,1.0,1.0,1.0,1.0,55.0,,0 days 00:00:00
2023-11-16 11:16:20.421,1.27782,0.37072173,0.6885001,1.0826107,0.88776493,0.21697791,0.39053172,1.0294869,1.3631306,0.12518838,0.41335762,0.8930909,0.79757565,0.21375069,0.17020355,0.7548452,0.6701021,-0.10704801,-0.22394559,0.52371055,733.3333,796.99634,808.68134,822.7839,796.5934,0.0,0.0,0.3731689453125,0.00970458984375,0.92730712890625,2.594451904296875,-6.258087158203125,0.949554443359375,9934652.014652014,101633553.1135531,55534285.71428572,80.046135,1.0,1.0,1.0,1.0,1.0,55.0,,0 days 00:00:00.001000
2023-11-16 11:16:20.421,1.27782,0.37072173,0.6885001,1.0826107,0.88776493,0.21697791,0.39053172,1.0294869,1.3631306,0.12518838,0.41335762,0.8930909,0.79757565,0.21375069,0.17020355,0.7548452,0.6701021,-0.10704801,-0.22394559,0.52371055,738.5714,803.44324,800.6227,830.84247,774.83514,0.0,0.0,0.3731689453125,0.00970458984375,0.92730712890625,2.594451904296875,-6.258087158203125,0.949554443359375,9934652.014652014,101633553.1135531,55534285.71428572,80.046135,1.0,1.0,1.0,1.0,1.0,55.0,,0 days 00:00:00
2023-11-16 11:16:20.422,1.27782,0.37072173,0.6885001,1.0826107,0.88776493,0.21697791,0.39053172,1.0294869,1.3631306,0.12518838,0.41335762,0.8930909,0.79757565,0.21375069,0.17020355,0.7548452,0.6701021,-0.10704801,-0.22394559,0.52371055,740.58606,796.99634,806.6667,823.9927,785.31134,0.0,0.0,0.3731689453125,0.00970458984375,0.92730712890625,2.594451904296875,-6.258087158203125,0.949554443359375,9934652.014652014,101633553.1135531,55534285.71428572,80.046135,1.0,1.0,1.0,1.0,1.0,55.0,,0 days 00:00:00.001000
2023-11-16 11:16:20.422,1.27782,0.37072173,0.6885001,1.0826107,0.88776493,0.21697791,0.39053172,1.0294869,1.3631306,0.12518838,0.41335762,0.8930909,0.79757565,0.21375069,0.17020355,0.7548452,0.6701021,-0.10704801,-0.22394559,0.52371055,733.3333,792.96704,807.8755,819.15753,1050.4396,0.0,0.0,0.3731689453125,0.00970458984375,0.92730712890625,2.594451904296875,-6.258087158203125,0.949554443359375,9934652.014652014,101633553.1135531,55534285.71428572,80.046135,1.0,1.0,1.0,1.0,1.0,55.0,,0 days 00:00:00
2023-11-16 11:16:20.423,1.27782,0.37072173,0.6885001,1.0826107,0.88776493,0.21697791,0.39053172,1.0294869,1.3631306,0.12518838,0.41335762,0.8930909,0.79757565,0.21375069,0.17020355,0.7548452,0.6701021,-0.10704801,-0.22394559,0.52371055,719.6337,791.75824,807.47253,814.3223,1121.3553,0.0,0.0,0.3731689453125,0.00970458984375,0.92730712890625,2.594451904296875,-6.258087158203125,0.949554443359375,9934652.014652014,101633553.1135531,55534285.71428572,80.046135,1.0,1.0,1.0,1.0,1.0,55.0,,0 days 00:00:00.001000
2023-11-16 11:16:20.423,1.27782,0.37072173,0.6885001,1.0826107,0.88776493,0.21697791,0.39053172,1.0294869,1.3631306,0.12518838,0.41335762,0.8930909,0.79757565,0.21375069,0.17020355,0.7548452,0.6701021,-0.10704801,-0.22394559,0.52371055,714.3956,793.7729,806.6667,805.4579,869.5238,0.0,0.0,0.3731689453125,0.00970458984375,0.92730712890625,2.594451904296875,-6.258087158203125,0.949554443359375,9934652.014652014,101633553.1135531,55534285.71428572,80.046135,1.0,1.0,1.0,1.0,1.0,55.0,,0 days 00:00:00
2023-11-16 11:16:20.424,1.27782,0.37072173,0.6885001,1.0826107,0.88776493,0.21697791,0.39053172,1.0294869,1.3631306,0.12518838,0.41335762,0.8930909,0.79757565,0.21375069,0.17020355,0.7548452,0.6701021,-0.10704801,-0.22394559,0.52371055,746.2271,803.8461,811.9048,813.1135,815.5311,0.0,0.0,0.3731689453125,0.00970458984375,0.92730712890625,2.594451904296875,-6.258087158203125,0.949554443359375,9934652.014652014,101633553.1135531,55534285.71428572,80.046135,1.0,1.0,1.0,1.0,1.0,55.0,,0 days 00:00:00.001000
2023-11-16 11:16:20.424,1.27782,0.37072173,0.6885001,1.0826107,0.88776493,0.21697791,0.39053172,1.0294869,1.3631306,0.12518838,0.41335762,0.8930909,0.79757565,0.21375069,0.17020355,0.7548452,0.6701021,-0.10704801,-0.22394559,0.52371055,771.2088,811.0989,807.47253,819.9634,828.022,0.0,0.0,0.3731689453125,0.00970458984375,0.92730712890625,2.594451904296875,-6.258087158203125,0.949554443359375,9934652.014652014,101633553.1135531,55534285.71428572,80.046135,1.0,1.0,1.0,1.0,1.0,55.0,,0 days 00:00:00
2023-11-16 11:16:20.424,1.27782,0.37072173,0.6885001,1.0826107,0.88776493,0.21697791,0.39053172,1.0294869,1.3631306,0.12518838,0.41335762,0.8930909,0.79757565,0.21375069,0.17020355,0.7548452,0.6701021,-0.10704801,-0.22394559,0.52371055,757.50916,810.293,803.0403,816.337,787.326,0.0,0.0,0.3731689453125,0.00970458984375,0.92730712890625,2.594451904296875,-6.258087158203125,0.949554443359375,9934652.014652014,101633553.1135531,55534285.71428572,80.046135,1.0,1.0,1.0,1.0,1.0,55.0,,0 days 00:00:00
2023-11-16 11:16:20.464,1.27782,0.37072173,0.6885001,1.0826107,0.88776493,0.21697791,0.39053172,1.0294869,1.3631306,0.12518838,0.41335762,0.8930909,0.79757565,0.21375069,0.17020355,0.7548452,0.6701021,-0.10704801,-0.22394559,0.52371055,728.9011,811.50183,803.0403,815.12823,777.6557,0.0,0.0,0.37908935546875,0.01519775390625,0.922607421875,2.684173583984375,-7.110443115234375,0.545806884765625,9816996.336996336,101602930.4029304,55535897.43589743,79.68731,1.0,1.0,1.0,1.0,1.0,55.0,,0 days 00:00:00.040000
2023-11-16 11:16:20.465,1.27782,0.37072173,0.6885001,1.0826107,0.88776493,0.21697791,0.39053172,1.0294869,1.3631306,0.12518838,0.41335762,0.8930909,0.79757565,0.21375069,0.17020355,0.7548452,0.6701021,-0.10704801,-0.22394559,0.52371055,734.94507,811.50183,817.5458,830.4396,826.8132,0.0,0.0,0.37908935546875,0.01519775390625,0.922607421875,2.684173583984375,-7.110443115234375,0.545806884765625,9816996.336996336,101602930.4029304,55535897.43589743,79.68731,1.0,1.0,1.0,1.0,1.0,55.0,,0 days 00:00:00.001000
2023-11-16 11:16:20.465,1.27782,0.37072173,0.6885001,1.0826107,0.88776493,0.21697791,0.39053172,1.0294869,1.3631306,0.12518838,0.41335762,0.8930909,0.79757565,0.21375069,0.17020355,0.7548452,0.6701021,-0.10704801,-0.22394559,0.52371055,720.0366,801.4286,829.2308,811.9048,869.5238,0.0,0.0,0.37908935546875,0.01519775390625,0.922607421875,2.684173583984375,-7.110443115234375,0.545806884765625,9816996.336996336,101602930.4029304,55535897.43589743,79.68731,1.0,1.0,1.0,1.0,1.0,55.0,,0 days 00:00:00
2023-11-16 11:16:20.466,1.27782,0.37072173,0.6885001,1.0826107,0.88776493,0.21697791,0.39053172,1.0294869,1.3631306,0.12518838,0.41335762,0.8930909,0.79757565,0.21375069,0.17020355,0.7548452,0.6701021,-0.10704801,-0.22394559,0.52371055,712.381,794.9817,820.7692,773.6264,769.59705,0.0,0.0,0.37908935546875,0.01519775390625,0.922607421875,2.684173583984375,-7.110443115234375,0.545806884765625,9816996.336996336,101602930.4029304,55535897.43589743,79.68731,1.0,1.0,1.0,1.0,1.0,55.0,,0 days 00:00:00.001000
2023-11-16 11:16:20.466,1.27782,0.37072173,0.6885001,1.0826107,0.88776493,0.21697791,0.39053172,1.0294869,1.3631306,0.12518838,0.41335762,0.8930909,0.79757565,0.21375069,0.17020355,0.7548452,0.6701021,-0.10704801,-0.22394559,0.52371055,734.1392,792.5641,821.978,776.4469,743.00366,0.0,0.0,0.37908935546875,0.01519775390625,0.922607421875,2.684173583984375,-7.110443115234375,0.545806884765625,9816996.336996336,101602930.4029304,55535897.43589743,79.68731,1.0,1.0,1.0,1.0,1.0,55.0,,0 days 00:00:00
2023-11-16 11:16:20.467,1.27782,0.37072173,0.6885001,1.0826107,0.88776493,0.21697791,0.39053172,1.0294869,1.3631306,0.12518838,0.41335762,0.8930909,0.79757565,0.21375069,0.17020355,0.7548452,0.6701021,-0.10704801,-0.22394559,0.52371055,732.52747,791.75824,827.619,809.4872,934.7985,0.0,0.0,0.37908935546875,0.01519775390625,0.922607421875,2.684173583984375,-7.110443115234375,0.545806884765625,9816996.336996336,101602930.4029304,55535897.43589743,79.68731,1.0,1.0,1.0,1.0,1.0,55.0,,0 days 00:00:00.001000
2023-11-16 11:16:20.467,1.27782,0.37072173,0.6885001,1.0826107,0.88776493,0.21697791,0.39053172,1.0294869,1.3631306,0.12518838,0.41335762,0.8930909,0.79757565,0.21375069,0.17020355,0.7548452,0.6701021,-0.10704801,-0.22394559,0.52371055,728.0952,785.7143,832.0513,809.0842,958.1685,0.0,0.0,0.37908935546875,0.01519775390625,0.922607421875,2.684173583984375,-7.110443115234375,0.545806884765625,9816996.336996336,101602930.4029304,55535897.43589743,79.68731,1.0,1.0,1.0,1.0,1.0,55.0,,0 days 00:00:00
2023-11-16 11:16:20.468,1.27782,0.37072173,0.6885001,1.0826107,0.88776493,0.21697791,0.39053172,1.0294869,1.3631306,0.12518838,0.41335762,0.8930909,0.79757565,0.21375069,0.17020355,0.7548452,0.6701021,-0.10704801,-0.22394559,0.52371055,727.28937,786.52014,835.2747,807.0696,808.68134,0.0,0.0,0.37908935546875,0.01519775390625,0.922607421875,2.684173583984375,-7.110443115234375,0.545806884765625,9816996.336996336,101602930.4029304,55535897.43589743,79.68731,1.0,1.0,1.0,1.0,1.0,55.0,,0 days 00:00:00.001000
2023-11-16 11:16:20.468,1.27782,0.37072173,0.6885001,1.0826107,0.88776493,0.21697791,0.39053172,1.0294869,1.3631306,0.12518838,0.41335762,0.8930909,0.79757565,0.21375069,0.17020355,0.7548452,0.6701021,-0.10704801,-0.22394559,0.52371055,736.55676,791.75824,833.2601,816.7399,712.381,0.0,0.0,0.37908935546875,0.01519775390625,0.922607421875,2.684173583984375,-7.110443115234375,0.545806884765625,9816996.336996336,101602930.4029304,55535897.43589743,79.68731,1.0,1.0,1.0,1.0,1.0,55.0,,0 days 00:00:00
2023-11-16 11:16:20.469,1.27782,0.37072173,0.6885001,1.0826107,0.88776493,0.21697791,0.39053172,1.0294869,1.3631306,0.12518838,0.41335762,0.8930909,0.79757565,0.21375069,0.17020355,0.7548452,0.6701021,-0.10704801,-0.22394559,0.52371055,739.3773,792.5641,824.3956,815.5311,823.5897,0.0,0.0,0.37908935546875,0.01519775390625,0.922607421875,2.684173583984375,-7.110443115234375,0.545806884765625,9816996.336996336,101602930.4029304,55535897.43589743,79.68731,1.0,1.0,1.0,1.0,1.0,55.0,,0 days 00:00:00.001000
2023-11-16 11:16:20.469,1.27782,0.37072173,0.6885001,1.0826107,0.88776493,0.21697791,0.39053172,1.0294869,1.3631306,0.12518838,0.41335762,0.8930909,0.79757565,0.21375069,0.17020355,0.7548452,0.6701021,-0.10704801,-0.22394559,0.52371055,740.58606,795.78754,826.8132,809.4872,973.47986,0.0,0.0,0.37908935546875,0.01519775390625,0.922607421875,2.684173583984375,-7.110443115234375,0.545806884765625,9816996.336996336,101602930.4029304,55535897.43589743,79.68731,1.0,1.0,1.0,1.0,1.0,55.0,,0 days 00:00:00
2023-11-16 11:16:20.469,1.27782,0.3592766,0.76254946,1.0826107,0.88776493,0.22004862,0.39688894,1.0294869,1.3631306,0.13127856,0.41335762,0.8930909,0.79757565,0.2236331,0.18651842,0.7548452,0.6701021,-0.08725796,-0.21207851,0.52371055,748.6447,797.8022,828.4249,792.96704,842.52747,0.0,0.0,0.37908935546875,0.01519775390625,0.922607421875,2.684173583984375,-7.110443115234375,0.545806884765625,9816996.336996336,101602930.4029304,55535897.43589743,79.68731,1.0,1.0,1.0,1.0,1.0,55.0,,0 days 00:00:00
2023-11-16 11:16:20.496,1.27782,0.3592766,0.76254946,1.0826107,0.88776493,0.22004862,0.39688894,1.0294869,1.3631306,0.13127856,0.41335762,0.8930909,0.79757565,0.2236331,0.18651842,0.7548452,0.6701021,-0.08725796,-0.21207851,0.52371055,742.6007,788.93774,820.3663,801.4286,783.69965,0.0,0.0,0.37908935546875,0.01519775390625,0.922607421875,2.684173583984375,-7.110443115234375,0.545806884765625,9816996.336996336,101602930.4029304,55535897.43589743,79.68731,1.0,1.0,1.0,1.0,1.0,55.0,,0 days 00:00:00.027000
2023-11-16 11:16:20.497,1.27782,0.3592766,0.76254946,1.0826107,0.88776493,0.22004862,0.39688894,1.0294869,1.3631306,0.13127856,0.41335762,0.8930909,0.79757565,0.2236331,0.18651842,0.7548452,0.6701021,-0.08725796,-0.21207851,0.52371055,732.9304,790.54944,823.9927,801.8315,854.61536,0.0,0.0,0.37908935546875,0.01519775390625,0.922607421875,2.684173583984375,-7.110443115234375,0.545806884765625,9816996.336996336,101602930.4029304,55535897.43589743,79.68731,1.0,1.0,1.0,1.0,1.0,55.0,,0 days 00:00:00.001000
2023-11-16 11:16:20.498,1.27782,0.3592766,0.76254946,1.0826107,0.88776493,0.22004862,0.39688894,1.0294869,1.3631306,0.13127856,0.41335762,0.8930909,0.79757565,0.2236331,0.18651842,0.7548452,0.6701021,-0.08725796,-0.21207851,0.52371055,750.65936,798.60803,829.6337,792.1612,841.7216,0.0,0.0,0.37908935546875,0.01519775390625,0.922607421875,2.684173583984375,-7.110443115234375,0.545806884765625,9816996.336996336,101602930.4029304,55535897.43589743,79.68731,1.0,1.0,1.0,1.0,1.0,55.0,,0 days 00:00:00.001000
2023-11-16 11:16:20.498,1.27782,0.3592766,0.76254946,1.0826107,0.88776493,0.22004862,0.39688894,1.0294869,1.3631306,0.13127856,0.41335762,0.8930909,0.79757565,0.2236331,0.18651842,0.7548452,0.6701021,-0.08725796,-0.21207851,0.52371055,784.10254,802.6374,827.619,812.71063,834.0659,0.0,0.0,0.37908935546875,0.01519775390625,0.922607421875,2.684173583984375,-7.110443115234375,0.545806884765625,9816996.336996336,101602930.4029304,55535897.43589743,79.68731,1.0,1.0,1.0,1.0,1.0,55.0,,0 days 00:00:00
2023-11-16 11:16:20.499,1.27782,0.3592766,0.76254946,1.0826107,0.88776493,0.22004862,0.39688894,1.0294869,1.3631306,0.13127856,0.41335762,0.8930909,0.79757565,0.2236331,0.18651842,0.7548452,0.6701021,-0.08725796,-0.21207851,0.52371055,780.87915,810.293,815.5311,801.02563,869.12085,0.0,0.0,0.37908935546875,0.01519775390625,0.922607421875,2.684173583984375,-7.110443115234375,0.545806884765625,9816996.336996336,101602930.4029304,55535897.43589743,79.68731,1.0,1.0,1.0,1.0,1.0,55.0,,0 days 00:00:00.001000
2023-11-16 11:16:20.499,1.27782,0.3592766,0.76254946,1.0826107,0.88776493,0.22004862,0.39688894,1.0294869,1.3631306,0.13127856,0.41335762,0.8930909,0.79757565,0.2236331,0.18651842,0.7548452,0.6701021,-0.08725796,-0.21207851,0.52371055,772.4176,812.3077,817.9487,799.41394,986.3736,0.0,0.0,0.37908935546875,0.01519775390625,0.922607421875,2.684173583984375,-7.110443115234375,0.545806884765625,9816996.336996336,101602930.4029304,55535897.43589743,79.68731,1.0,1.0,1.0,1.0,1.0,55.0,,0 days 00:00:00
2023-11-16 11:16:20.500,1.27782,0.3592766,0.76254946,1.0826107,0.88776493,0.22004862,0.39688894,1.0294869,1.3631306,0.13127856,0.41335762,0.8930909,0.79757565,0.2236331,0.18651842,0.7548452,0.6701021,-0.08725796,-0.21207851,0.52371055,771.2088,806.26373,823.1868,812.3077,931.978,0.0,0.0,0.37908935546875,0.01519775390625,0.922607421875,2.684173583984375,-7.110443115234375,0.545806884765625,9816996.336996336,101602930.4029304,55535897.43589743,79.68731,1.0,1.0,1.0,1.0,1.0,55.0,,0 days 00:00:00.001000
2023-11-16 11:16:20.500,1.27782,0.3592766,0.76254946,1.0826107,0.88776493,0.22004862,0.39688894,1.0294869,1.3631306,0.13127856,0.41335762,0.8930909,0.79757565,0.2236331,0.18651842,0.7548452,0.6701021,-0.08725796,-0.21207851,0.52371055,748.24176,805.05493,807.8755,767.5824,744.21246,0.0,0.0,0.37908935546875,0.01519775390625,0.922607421875,2.684173583984375,-7.110443115234375,0.545806884765625,9816996.336996336,101602930.4029304,55535897.43589743,79.68731,1.0,1.0,1.0,1.0,1.0,55.0,,0 days 00:00:00
2023-11-16 11:16:20.501,1.27782,0.3592766,0.76254946,1.0826107,0.88776493,0.22004862,0.39688894,1.0294869,1.3631306,0.13127856,0.41335762,0.8930909,0.79757565,0.2236331,0.18651842,0.7548452,0.6701021,-0.08725796,-0.21207851,0.52371055,736.1539,803.8461,809.4872,751.06226,716.0073,0.0,0.0,0.37908935546875,0.01519775390625,0.922607421875,2.684173583984375,-7.110443115234375,0.545806884765625,9816996.336996336,101602930.4029304,55535897.43589743,79.68731,1.0,1.0,1.0,1.0,1.0,55.0,,0 days 00:00:00.001000
2023-11-16 11:16:20.501,1.27782,0.3592766,0.76254946,1.0826107,0.88776493,0.22004862,0.39688894,1.0294869,1.3631306,0.13127856,0.41335762,0.8930909,0.79757565,0.2236331,0.18651842,0.7548452,0.6701021,-0.08725796,-0.21207851,0.52371055,758.71796,795.78754,813.5165,780.4762,964.61536,0.0,0.0,0.37908935546875,0.01519775390625,0.922607421875,2.684173583984375,-7.110443115234375,0.545806884765625,9816996.336996336,101602930.4029304,55535897.43589743,79.68731,1.0,1.0,1.0,1.0,1.0,55.0,,0 days 00:00:00
2023-11-16 11:16:20.502,1.27782,0.3592766,0.76254946,1.0826107,0.88776493,0.22004862,0.39688894,1.0294869,1.3631306,0.13127856,0.41335762,0.8930909,0.79757565,0.2236331,0.18651842,0.7548452,0.6701021,-0.08725796,-0.21207851,0.52371055,756.30035,791.3553,809.89014,777.25275,992.8205,0.0,0.0,0.37908935546875,0.01519775390625,0.922607421875,2.684173583984375,-7.110443115234375,0.545806884765625,9816996.336996336,101602930.4029304,55535897.43589743,79.68731,1.0,1.0,1.0,1.0,1.0,55.0,,0 days 00:00:00.001000
2023-11-16 11:16:20.502,1.27782,0.3592766,0.76254946,1.0826107,0.88776493,0.22004862,0.39688894,1.0294869,1.3631306,0.13127856,0.41335762,0.8930909,0.79757565,0.2236331,0.18651842,0.7548452,0.6701021,-0.08725796,-0.21207851,0.52371055,743.00366,791.3553,811.50183,763.95605,743.00366,0.0,0.0,0.37908935546875,0.01519775390625,0.922607421875,2.684173583984375,-7.110443115234375,0.545806884765625,9816996.336996336,101602930.4029304,55535897.43589743,79.68731,1.0,1.0,1.0,1.0,1.0,55.0,,0 days 00:00:00
2023-11-16 11:16:20.530,1.27782,0.3592766,0.76254946,1.0826107,0.88776493,0.22004862,0.39688894,1.0294869,1.3631306,0.13127856,0.41335762,0.8930909,0.79757565,0.2236331,0.18651842,0.7548452,0.6701021,-0.08725796,-0.21207851,0.52371055,756.7033,798.60803,818.3516,763.95605,846.1539,0.0,0.0,0.4005126953125,0.0169677734375,0.92803955078125,3.282318115234375,-7.813262939453125,0.83740234375,9698534.798534798,101648058.6080586,55532673.99267399,79.00132,1.0,1.0,1.0,1.0,1.0,55.0,,0 days 00:00:00.028000
2023-11-16 11:16:20.531,1.27782,0.3592766,0.76254946,1.0826107,0.88776493,0.22004862,0.39688894,1.0294869,1.3631306,0.13127856,0.41335762,0.8930909,0.79757565,0.2236331,0.18651842,0.7548452,0.6701021,-0.08725796,-0.21207851,0.52371055,762.74725,803.0403,810.293,753.8828,883.6264,0.0,0.0,0.4005126953125,0.0169677734375,0.92803955078125,3.282318115234375,-7.813262939453125,0.83740234375,9698534.798534798,101648058.6080586,55532673.99267399,79.00132,1.0,1.0,1.0,1.0,1.0,55.0,,0 days 00:00:00.001000
2023-11-16 11:16:20.531,1.27782,0.3592766,0.76254946,1.0826107,0.88776493,0.22004862,0.39688894,1.0294869,1.3631306,0.13127856,0.41335762,0.8930909,0.79757565,0.2236331,0.18651842,0.7548452,0.6701021,-0.08725796,-0.21207851,0.52371055,773.6264,806.26373,816.337,763.5531,769.19415,0.0,0.0,0.4005126953125,0.0169677734375,0.92803955078125,3.282318115234375,-7.813262939453125,0.83740234375,9698534.798534798,101648058.6080586,55532673.99267399,79.00132,1.0,1.0,1.0,1.0,1.0,55.0,,0 days 00:00:00
2023-11-16 11:16:20.532,1.27782,0.3592766,0.76254946,1.0826107,0.88776493,0.22004862,0.39688894,1.0294869,1.3631306,0.13127856,0.41335762,0.8930909,0.79757565,0.2236331,0.18651842,0.7548452,0.6701021,-0.08725796,-0.21207851,0.52371055,777.6557,803.8461,819.5604,783.69965,722.4542,0.0,0.0,0.4005126953125,0.0169677734375,0.92803955078125,3.282318115234375,-7.813262939453125,0.83740234375,9698534.798534798,101648058.6080586,55532673.99267399,79.00132,1.0,1.0,1.0,1.0,1.0,55.0,,0 days 00:00:00.001000
2023-11-16 11:16:20.532,1.27782,0.3592766,0.76254946,1.0826107,0.88776493,0.22004862,0.39688894,1.0294869,1.3631306,0.13127856,0.41335762,0.8930909,0.79757565,0.2236331,0.18651842,0.7548452,0.6701021,-0.08725796,-0.21207851,0.52371055,756.30035,793.7729,801.4286,750.65936,772.4176,0.0,0.0,0.4005126953125,0.0169677734375,0.92803955078125,3.282318115234375,-7.813262939453125,0.83740234375,9698534.798534798,101648058.6080586,55532673.99267399,79.00132,1.0,1.0,1.0,1.0,1.0,55.0,,0 days 00:00:00
2023-11-16 11:16:20.532,1.27782,0.3592766,0.76254946,1.0826107,0.88776493,0.22004862,0.39688894,1.0294869,1.3631306,0.13127856,0.41335762,0.8930909,0.79757565,0.2236331,0.18651842,0.7548452,0.6701021,-0.08725796,-0.21207851,0.52371055,743.8095,788.5348,817.5458,739.3773,800.6227,0.0,0.0,0.4005126953125,0.0169677734375,0.92803955078125,3.282318115234375,-7.813262939453125,0.83740234375,9698534.798534798,101648058.6080586,55532673.99267399,79.00132,1.0,1.0,1.0,1.0,1.0,55.0,,0 days 00:00:00
2023-11-16 11:16:20.533,1.27782,0.3592766,0.76254946,1.0826107,0.88776493,0.22004862,0.39688894,1.0294869,1.3631306,0.13127856,0.41335762,0.8930909,0.79757565,0.2236331,0.18651842,0.7548452,0.6701021,-0.08725796,-0.21207851,0.52371055,738.97437,788.93774,823.1868,747.03296,796.99634,0.0,0.0,0.4005126953125,0.0169677734375,0.92803955078125,3.282318115234375,-7.813262939453125,0.83740234375,9698534.798534798,101648058.6080586,55532673.99267399,79.00132,1.0,1.0,1.0,1.0,1.0,55.0,,0 days 00:00:00.001000
2023-11-16 11:16:20.533,1.27782,0.3592766,0.76254946,1.0826107,0.88776493,0.22004862,0.39688894,1.0294869,1.3631306,0.13127856,0.41335762,0.8930909,0.79757565,0.2236331,0.18651842,0.7548452,0.6701021,-0.08725796,-0.21207851,0.52371055,735.7509,800.2198,813.91943,742.6007,798.60803,0.0,0.0,0.4005126953125,0.0169677734375,0.92803955078125,3.282318115234375,-7.813262939453125,0.83740234375,9698534.798534798,101648058.6080586,55532673.99267399,79.00132,1.0,1.0,1.0,1.0,1.0,55.0,,0 days 00:00:00
2023-11-16 11:16:20.533,1.27782,0.3592766,0.76254946,1.0826107,0.88776493,0.22004862,0.39688894,1.0294869,1.3631306,0.13127856,0.41335762,0.8930909,0.79757565,0.2236331,0.18651842,0.7548452,0.6701021,-0.08725796,-0.21207851,0.52371055,763.1502,812.3077,812.3077,741.39197,826.4103,0.0,0.0,0.4005126953125,0.0169677734375,0.92803955078125,3.282318115234375,-7.813262939453125,0.83740234375,9698534.798534798,101648058.6080586,55532673.99267399,79.00132,1.0,1.0,1.0,1.0,1.0,55.0,,0 days 00:00:00
2023-11-16 11:16:20.533,1.27782,0.3592766,0.76254946,1.0826107,0.88776493,0.22004862,0.39688894,1.0294869,1.3631306,0.13127856,0.41335762,0.8930909,0.79757565,0.2236331,0.18651842,0.7548452,0.6701021,-0.08725796,-0.21207851,0.52371055,754.2857,809.0842,809.89014,740.58606,922.71063,0.0,0.0,0.4005126953125,0.0169677734375,0.92803955078125,3.282318115234375,-7.813262939453125,0.83740234375,9698534.798534798,101648058.6080586,55532673.99267399,79.00132,1.0,1.0,1.0,1.0,1.0,55.0,,0 days 00:00:00
2023-11-16 11:16:20.534,1.27782,0.3592766,0.76254946,1.0826107,0.88776493,0.22004862,0.39688894,1.0294869,1.3631306,0.13127856,0.41335762,0.8930909,0.79757565,0.2236331,0.18651842,0.7548452,0.6701021,-0.08725796,-0.21207851,0.52371055,736.9597,796.5934,808.2784,755.09155,851.39197,0.0,0.0,0.4005126953125,0.0169677734375,0.92803955078125,3.282318115234375,-7.813262939453125,0.83740234375,9698534.798534798,101648058.6080586,55532673.99267399,79.00132,1.0,1.0,1.0,1.0,1.0,55.0,,0 days 00:00:00.001000
2023-11-16 11:16:20.534,1.27782,0.3592766,0.76254946,1.0826107,0.88776493,0.22004862,0.39688894,1.0294869,1.3631306,0.13127856,0.41335762,0.8930909,0.79757565,0.2236331,0.18651842,0.7548452,0.6701021,-0.08725796,-0.21207851,0.52371055,745.0183,788.93774,802.6374,740.18317,784.90845,0.0,0.0,0.4005126953125,0.0169677734375,0.92803955078125,3.282318115234375,-7.813262939453125,0.83740234375,9698534.798534798,101648058.6080586,55532673.99267399,79.00132,1.0,1.0,1.0,1.0,1.0,55.0,,0 days 00:00:00
2023-11-16 11:16:20.614,1.27782,0.3592766,0.76254946,1.0826107,0.88776493,0.22004862,0.39688894,1.0294869,1.3631306,0.13127856,0.41335762,0.8930909,0.79757565,0.2236331,0.18651842,0.7548452,0.6701021,-0.08725796,-0.21207851,0.52371055,738.5714,785.7143,806.26373,720.84247,751.8681,0.0,0.0,0.3839111328125,0.016357421875,0.92742919921875,2.76641845703125,-4.658050537109375,0.58319091796875,9698534.798534798,101648058.6080586,55532673.99267399,79.00132,1.0,1.0,1.0,1.0,1.0,55.0,,0 days 00:00:00.080000
2023-11-16 11:16:20.615,1.27782,0.35335892,0.83376914,1.0826107,0.88776493,0.20507695,0.41067702,1.0294869,1.3631306,0.13911356,0.41335762,0.8930909,0.79757565,0.235517,0.20549473,0.7548452,0.6701021,-0.06734152,-0.177252,0.52371055,753.0769,788.93774,807.0696,733.73627,722.4542,0.0,0.0,0.3839111328125,0.016357421875,0.92742919921875,2.76641845703125,-4.658050537109375,0.58319091796875,9698534.798534798,101648058.6080586,55532673.99267399,79.00132,1.0,1.0,1.0,1.0,1.0,55.0,,0 days 00:00:00.001000
2023-11-16 11:16:20.617,1.27782,0.35335892,0.83376914,1.0826107,0.88776493,0.20507695,0.41067702,1.0294869,1.3631306,0.13911356,0.41335762,0.8930909,0.79757565,0.235517,0.20549473,0.7548452,0.6701021,-0.06734152,-0.177252,0.52371055,745.0183,796.99634,796.99634,713.9927,738.1685,0.0,0.0,0.3839111328125,0.016357421875,0.92742919921875,2.76641845703125,-4.658050537109375,0.58319091796875,9698534.798534798,101648058.6080586,55532673.99267399,79.00132,1.0,1.0,1.0,1.0,1.0,55.0,,0 days 00:00:00.002000
2023-11-16 11:16:20.618,1.27782,0.35335892,0.83376914,1.0826107,0.88776493,0.20507695,0.41067702,1.0294869,1.3631306,0.13911356,0.41335762,0.8930909,0.79757565,0.235517,0.20549473,0.7548452,0.6701021,-0.06734152,-0.177252,0.52371055,731.31866,798.20514,778.86444,700.293,784.90845,0.0,0.0,0.3839111328125,0.016357421875,0.92742919921875,2.76641845703125,-4.658050537109375,0.58319091796875,9698534.798534798,101648058.6080586,55532673.99267399,79.00132,1.0,1.0,1.0,1.0,1.0,55.0,,0 days 00:00:00.001000
2023-11-16 11:16:20.618,1.27782,0.35335892,0.83376914,1.0826107,0.88776493,0.20507695,0.41067702,1.0294869,1.3631306,0.13911356,0.41335762,0.8930909,0.79757565,0.235517,0.20549473,0.7548452,0.6701021,-0.06734152,-0.177252,0.52371055,720.84247,792.5641,783.2967,707.9487,835.6777,0.0,0.0,0.3839111328125,0.016357421875,0.92742919921875,2.76641845703125,-4.658050537109375,0.58319091796875,9698534.798534798,101648058.6080586,55532673.99267399,79.00132,1.0,1.0,1.0,1.0,1.0,55.0,,0 days 00:00:00
2023-11-16 11:16:20.619,1.27782,0.35335892,0.83376914,1.0826107,0.88776493,0.20507695,0.41067702,1.0294869,1.3631306,0.13911356,0.41335762,0.8930909,0.79757565,0.235517,0.20549473,0.7548452,0.6701021,-0.06734152,-0.177252,0.52371055,716.8132,783.69965,790.14655,711.978,850.989,0.0,0.0,0.3839111328125,0.016357421875,0.92742919921875,2.76641845703125,-4.658050537109375,0.58319091796875,9698534.798534798,101648058.6080586,55532673.99267399,79.00132,1.0,1.0,1.0,1.0,1.0,55.0,,0 days 00:00:00.001000
2023-11-16 11:16:20.619,1.27782,0.35335892,0.83376914,1.0826107,0.88776493,0.20507695,0.41067702,1.0294869,1.3631306,0.13911356,0.41335762,0.8930909,0.79757565,0.235517,0.20549473,0.7548452,0.6701021,-0.06734152,-0.177252,0.52371055,720.0366,783.69965,777.25275,718.4249,849.7802,0.0,0.0,0.3839111328125,0.016357421875,0.92742919921875,2.76641845703125,-4.658050537109375,0.58319091796875,9698534.798534798,101648058.6080586,55532673.99267399,79.00132,1.0,1.0,1.0,1.0,1.0,55.0,,0 days 00:00:00
2023-11-16 11:16:20.620,1.27782,0.35335892,0.83376914,1.0826107,0.88776493,0.20507695,0.41067702,1.0294869,1.3631306,0.13911356,0.41335762,0.8930909,0.79757565,0.235517,0.20549473,0.7548452,0.6701021,-0.06734152,-0.177252,0.52371055,716.4103,782.49084,774.43225,724.4689,818.3516,0.0,0.0,0.3839111328125,0.016357421875,0.92742919921875,2.76641845703125,-4.658050537109375,0.58319091796875,9698534.798534798,101648058.6080586,55532673.99267399,79.00132,1.0,1.0,1.0,1.0,1.0,55.0,,0 days 00:00:00.001000
2023-11-16 11:16:20.620,1.27782,0.35335892,0.83376914,1.0826107,0.88776493,0.20507695,0.41067702,1.0294869,1.3631306,0.13911356,0.41335762,0.8930909,0.79757565,0.235517,0.20549473,0.7548452,0.6701021,-0.06734152,-0.177252,0.52371055,722.8571,784.90845,777.6557,737.76556,980.7326,0.0,0.0,0.3839111328125,0.016357421875,0.92742919921875,2.76641845703125,-4.658050537109375,0.58319091796875,9698534.798534798,101648058.6080586,55532673.99267399,79.00132,1.0,1.0,1.0,1.0,1.0,55.0,,0 days 00:00:00
2023-11-16 11:16:20.621,1.27782,0.35335892,0.83376914,1.0826107,0.88776493,0.20507695,0.41067702,1.0294869,1.3631306,0.13911356,0.41335762,0.8930909,0.79757565,0.235517,0.20549473,0.7548452,0.6701021,-0.06734152,-0.177252,0.52371055,732.52747,785.31134,778.46155,726.8865,983.1502,0.0,0.0,0.3839111328125,0.016357421875,0.92742919921875,2.76641845703125,-4.658050537109375,0.58319091796875,9698534.798534798,101648058.6080586,55532673.99267399,79.00132,1.0,1.0,1.0,1.0,1.0,55.0,,0 days 00:00:00.001000
