TimeStamp,Delta_TP9,Delta_AF7,Delta_AF8,Delta_TP10,Theta_TP9,Theta_AF7,Theta_AF8,Theta_TP10,Alpha_TP9,Alpha_AF7,Alpha_AF8,Alpha_TP10,Beta_TP9,Beta_AF7,Beta_AF8,Beta_TP10,Gamma_TP9,Gamma_AF7,Gamma_AF8,Gamma_TP10,RAW_TP9,RAW_AF7,RAW_AF8,RAW_TP10,AUX_RIGHT,Mellow,Concentration,Accelerometer_X,Accelerometer_Y,Accelerometer_Z,Gyro_X,Gyro_Y,Gyro_Z,PPG_Ambient,PPG_IR,PPG_Red,Heart_Rate,HeadBandOn,HSI_TP9,HSI_AF7,HSI_AF8,HSI_TP10,Battery,Elements,TimeDifference
2023-11-09 13:09:44.070,0.7982169,0.974104,0.5271322,0.63257414,0.53432655,0.24600069,0.25704768,0.31828138,1.0119332,0.20430145,0.1696247,0.95095176,0.7604931,0.22636569,0.023278465,0.8563629,0.42662448,-0.11268349,0.15482053,0.74181765,824.7985,797.8022,795.78754,834.4689,912.6374,15.999998,0.0,0.39324951171875,0.06866455078125,0.9156494140625,3.529052734375,-4.044952392578125,1.861724853515625,1144322.3443223443,101155677.65567765,34475531.135531135,79.86944,1.0,1.0,1.0,1.0,1.0,25.0,,0 days 00:00:00.001000
2023-11-09 13:09:44.071,0.7982169,0.974104,0.5271322,0.63257414,0.53432655,0.24600069,0.25704768,0.31828138,1.0119332,0.20430145,0.1696247,0.95095176,0.7604931,0.22636569,0.023278465,0.8563629,0.42662448,-0.11268349,0.15482053,0.74181765,809.4872,800.6227,788.5348,768.7912,684.17584,15.999998,0.0,0.39324951171875,0.06866455078125,0.9156494140625,3.529052734375,-4.044952392578125,1.861724853515625,1144322.3443223443,101155677.65567765,34475531.135531135,79.86944,1.0,1.0,1.0,1.0,1.0,25.0,,0 days 00:00:00.001000
2023-11-09 13:09:44.071,0.7982169,0.974104,0.5271322,0.63257414,0.53432655,0.24600069,0.25704768,0.31828138,1.0119332,0.20430145,0.1696247,0.95095176,0.7604931,0.22636569,0.023278465,0.8563629,0.42662448,-0.11268349,0.15482053,0.74181765,788.1319,800.6227,795.78754,776.04395,680.14655,15.999998,0.0,0.39324951171875,0.06866455078125,0.9156494140625,3.529052734375,-4.044952392578125,1.861724853515625,1144322.3443223443,101155677.65567765,34475531.135531135,79.86944,1.0,1.0,1.0,1.0,1.0,25.0,,0 days 00:00:00
2023-11-09 13:09:44.072,0.7982169,0.974104,0.5271322,0.63257414,0.53432655,0.24600069,0.25704768,0.31828138,1.0119332,0.20430145,0.1696247,0.95095176,0.7604931,0.22636569,0.023278465,0.8563629,0.42662448,-0.11268349,0.15482053,0.74181765,792.1612,805.8608,805.8608,804.2491,817.9487,15.999998,0.0,0.39324951171875,0.06866455078125,0.9156494140625,3.529052734375,-4.044952392578125,1.861724853515625,1144322.3443223443,101155677.65567765,34475531.135531135,79.86944,1.0,1.0,1.0,1.0,1.0,25.0,,0 days 00:00:00.001000
2023-11-09 13:09:44.072,0.7982169,0.974104,0.5271322,0.63257414,0.53432655,0.24600069,0.25704768,0.31828138,1.0119332,0.20430145,0.1696247,0.95095176,0.7604931,0.22636569,0.023278465,0.8563629,0.42662448,-0.11268349,0.15482053,0.74181765,805.4579,804.2491,816.337,807.47253,911.8315,15.999998,0.0,0.39324951171875,0.06866455078125,0.9156494140625,3.529052734375,-4.044952392578125,1.861724853515625,1144322.3443223443,101155677.65567765,34475531.135531135,79.86944,1.0,1.0,1.0,1.0,1.0,25.0,,0 days 00:00:00
2023-11-09 13:09:44.072,0.7982169,0.974104,0.5271322,0.63257414,0.53432655,0.24600069,0.25704768,0.31828138,1.0119332,0.20430145,0.1696247,0.95095176,0.7604931,0.22636569,0.023278465,0.8563629,0.42662448,-0.11268349,0.15482053,0.74181765,803.44324,797.3993,794.57874,795.38464,838.9011,15.999998,0.0,0.39324951171875,0.06866455078125,0.9156494140625,3.529052734375,-4.044952392578125,1.861724853515625,1144322.3443223443,101155677.65567765,34475531.135531135,79.86944,1.0,1.0,1.0,1.0,1.0,25.0,,0 days 00:00:00
2023-11-09 13:09:44.073,0.7982169,0.974104,0.5271322,0.63257414,0.53432655,0.24600069,0.25704768,0.31828138,1.0119332,0.20430145,0.1696247,0.95095176,0.7604931,0.22636569,0.023278465,0.8563629,0.42662448,-0.11268349,0.15482053,0.74181765,816.337,803.0403,788.5348,790.54944,788.5348,15.999998,0.0,0.39324951171875,0.06866455078125,0.9156494140625,3.529052734375,-4.044952392578125,1.861724853515625,1144322.3443223443,101155677.65567765,34475531.135531135,79.86944,1.0,1.0,1.0,1.0,1.0,25.0,,0 days 00:00:00.001000
2023-11-09 13:09:44.073,0.7982169,0.974104,0.5271322,0.63257414,0.53432655,0.24600069,0.25704768,0.31828138,1.0119332,0.20430145,0.1696247,0.95095176,0.7604931,0.22636569,0.023278465,0.8563629,0.42662448,-0.11268349,0.15482053,0.74181765,830.0366,806.26373,808.2784,813.91943,983.5531,15.999998,0.0,0.39324951171875,0.06866455078125,0.9156494140625,3.529052734375,-4.044952392578125,1.861724853515625,1144322.3443223443,101155677.65567765,34475531.135531135,79.86944,1.0,1.0,1.0,1.0,1.0,25.0,,0 days 00:00:00
2023-11-09 13:09:44.073,0.84470814,0.9258759,0.5271322,0.6897886,0.5134899,0.18636027,0.25704768,0.42799747,0.9082106,0.21641605,0.1696247,1.0531639,0.7443858,0.19657241,0.023278465,0.8537748,0.42692694,-0.14532535,0.15482053,0.72453034,806.6667,802.6374,807.0696,783.2967,887.25275,17.999998,0.0,0.39324951171875,0.06866455078125,0.9156494140625,3.529052734375,-4.044952392578125,1.861724853515625,1144322.3443223443,101155677.65567765,34475531.135531135,79.86944,1.0,1.0,1.0,1.0,1.0,25.0,,0 days 00:00:00
2023-11-09 13:09:44.075,0.84470814,0.9258759,0.5271322,0.6897886,0.5134899,0.18636027,0.25704768,0.42799747,0.9082106,0.21641605,0.1696247,1.0531639,0.7443858,0.19657241,0.023278465,0.8537748,0.42692694,-0.14532535,0.15482053,0.72453034,790.14655,799.81683,800.2198,778.46155,698.2784,17.999998,0.0,0.39324951171875,0.06866455078125,0.9156494140625,3.529052734375,-4.044952392578125,1.861724853515625,1144322.3443223443,101155677.65567765,34475531.135531135,79.86944,1.0,1.0,1.0,1.0,1.0,25.0,,0 days 00:00:00.002000
2023-11-09 13:09:44.076,0.84470814,0.9258759,0.5271322,0.6897886,0.5134899,0.18636027,0.25704768,0.42799747,0.9082106,0.21641605,0.1696247,1.0531639,0.7443858,0.19657241,0.023278465,0.8537748,0.42692694,-0.14532535,0.15482053,0.72453034,799.81683,799.81683,788.5348,811.50183,718.022,17.999998,0.0,0.39324951171875,0.06866455078125,0.9156494140625,3.529052734375,-4.044952392578125,1.861724853515625,1144322.3443223443,101155677.65567765,34475531.135531135,79.86944,1.0,1.0,1.0,1.0,1.0,25.0,,0 days 00:00:00.001000
2023-11-09 13:09:44.118,0.84470814,0.9258759,0.5271322,0.6897886,0.5134899,0.18636027,0.25704768,0.42799747,0.9082106,0.21641605,0.1696247,1.0531639,0.7443858,0.19657241,0.023278465,0.8537748,0.42692694,-0.14532535,0.15482053,0.72453034,803.0403,796.99634,785.31134,788.5348,740.989,17.999998,0.0,0.38751220703125,0.07611083984375,0.9188232421875,3.30474853515625,-5.03936767578125,0.10467529296875,1139487.1794871795,101297509.15750916,34466666.666666664,79.86944,1.0,1.0,1.0,1.0,1.0,25.0,,0 days 00:00:00.042000
2023-11-09 13:09:44.118,0.84470814,0.9258759,0.5271322,0.6897886,0.5134899,0.18636027,0.25704768,0.42799747,0.9082106,0.21641605,0.1696247,1.0531639,0.7443858,0.19657241,0.023278465,0.8537748,0.42692694,-0.14532535,0.15482053,0.72453034,796.5934,794.57874,797.3993,775.64105,760.7326,17.999998,0.0,0.38751220703125,0.07611083984375,0.9188232421875,3.30474853515625,-5.03936767578125,0.10467529296875,1139487.1794871795,101297509.15750916,34466666.666666664,79.86944,1.0,1.0,1.0,1.0,1.0,25.0,,0 days 00:00:00
2023-11-09 13:09:44.119,0.84470814,0.9258759,0.5271322,0.6897886,0.5134899,0.18636027,0.25704768,0.42799747,0.9082106,0.21641605,0.1696247,1.0531639,0.7443858,0.19657241,0.023278465,0.8537748,0.42692694,-0.14532535,0.15482053,0.72453034,790.9524,795.78754,804.2491,783.2967,771.6117,17.999998,0.0,0.38751220703125,0.07611083984375,0.9188232421875,3.30474853515625,-5.03936767578125,0.10467529296875,1139487.1794871795,101297509.15750916,34466666.666666664,79.86944,1.0,1.0,1.0,1.0,1.0,25.0,,0 days 00:00:00.001000
2023-11-09 13:09:44.119,0.84470814,0.9258759,0.5271322,0.6897886,0.5134899,0.18636027,0.25704768,0.42799747,0.9082106,0.21641605,0.1696247,1.0531639,0.7443858,0.19657241,0.023278465,0.8537748,0.42692694,-0.14532535,0.15482053,0.72453034,785.7143,799.81683,807.47253,796.99634,745.82416,17.999998,0.0,0.38751220703125,0.07611083984375,0.9188232421875,3.30474853515625,-5.03936767578125,0.10467529296875,1139487.1794871795,101297509.15750916,34466666.666666664,79.86944,1.0,1.0,1.0,1.0,1.0,25.0,,0 days 00:00:00
2023-11-09 13:09:44.120,0.84470814,0.9258759,0.5271322,0.6897886,0.5134899,0.18636027,0.25704768,0.42799747,0.9082106,0.21641605,0.1696247,1.0531639,0.7443858,0.19657241,0.023278465,0.8537748,0.42692694,-0.14532535,0.15482053,0.72453034,787.326,800.6227,795.38464,801.8315,773.22345,17.999998,0.0,0.38751220703125,0.07611083984375,0.9188232421875,3.30474853515625,-5.03936767578125,0.10467529296875,1139487.1794871795,101297509.15750916,34466666.666666664,79.86944,1.0,1.0,1.0,1.0,1.0,25.0,,0 days 00:00:00.001000
2023-11-09 13:09:44.120,0.84470814,0.9258759,0.5271322,0.6897886,0.5134899,0.18636027,0.25704768,0.42799747,0.9082106,0.21641605,0.1696247,1.0531639,0.7443858,0.19657241,0.023278465,0.8537748,0.42692694,-0.14532535,0.15482053,0.72453034,785.31134,794.57874,792.96704,794.9817,825.6044,17.999998,0.0,0.38751220703125,0.07611083984375,0.9188232421875,3.30474853515625,-5.03936767578125,0.10467529296875,1139487.1794871795,101297509.15750916,34466666.666666664,79.86944,1.0,1.0,1.0,1.0,1.0,25.0,,0 days 00:00:00
2023-11-09 13:09:44.121,0.84470814,0.9258759,0.5271322,0.6897886,0.5134899,0.18636027,0.25704768,0.42799747,0.9082106,0.21641605,0.1696247,1.0531639,0.7443858,0.19657241,0.023278465,0.8537748,0.42692694,-0.14532535,0.15482053,0.72453034,794.17584,799.81683,810.696,799.011,854.21246,17.999998,0.0,0.38751220703125,0.07611083984375,0.9188232421875,3.30474853515625,-5.03936767578125,0.10467529296875,1139487.1794871795,101297509.15750916,34466666.666666664,79.86944,1.0,1.0,1.0,1.0,1.0,25.0,,0 days 00:00:00.001000
2023-11-09 13:09:44.121,0.84470814,0.9258759,0.5271322,0.6897886,0.5134899,0.18636027,0.25704768,0.42799747,0.9082106,0.21641605,0.1696247,1.0531639,0.7443858,0.19657241,0.023278465,0.8537748,0.42692694,-0.14532535,0.15482053,0.72453034,801.02563,796.5934,806.6667,807.0696,875.16486,17.999998,0.0,0.38751220703125,0.07611083984375,0.9188232421875,3.30474853515625,-5.03936767578125,0.10467529296875,1139487.1794871795,101297509.15750916,34466666.666666664,79.86944,1.0,1.0,1.0,1.0,1.0,25.0,,0 days 00:00:00
2023-11-09 13:09:44.121,0.84470814,0.9258759,0.5271322,0.6897886,0.5134899,0.18636027,0.25704768,0.42799747,0.9082106,0.21641605,0.1696247,1.0531639,0.7443858,0.19657241,0.023278465,0.8537748,0.42692694,-0.14532535,0.15482053,0.72453034,807.47253,790.14655,788.93774,825.6044,904.9817,17.999998,0.0,0.38751220703125,0.07611083984375,0.9188232421875,3.30474853515625,-5.03936767578125,0.10467529296875,1139487.1794871795,101297509.15750916,34466666.666666664,79.86944,1.0,1.0,1.0,1.0,1.0,25.0,,0 days 00:00:00
2023-11-09 13:09:44.122,0.84470814,0.9258759,0.5271322,0.6897886,0.5134899,0.18636027,0.25704768,0.42799747,0.9082106,0.21641605,0.1696247,1.0531639,0.7443858,0.19657241,0.023278465,0.8537748,0.42692694,-0.14532535,0.15482053,0.72453034,788.5348,799.81683,782.0879,798.60803,771.2088,17.999998,0.0,0.38751220703125,0.07611083984375,0.9188232421875,3.30474853515625,-5.03936767578125,0.10467529296875,1139487.1794871795,101297509.15750916,34466666.666666664,79.86944,1.0,1.0,1.0,1.0,1.0,25.0,,0 days 00:00:00.001000
2023-11-09 13:09:44.122,0.84470814,0.9258759,0.5271322,0.6897886,0.5134899,0.18636027,0.25704768,0.42799747,0.9082106,0.21641605,0.1696247,1.0531639,0.7443858,0.19657241,0.023278465,0.8537748,0.42692694,-0.14532535,0.15482053,0.72453034,782.0879,796.1905,788.1319,778.86444,769.59705,17.999998,0.0,0.38751220703125,0.07611083984375,0.9188232421875,3.30474853515625,-5.03936767578125,0.10467529296875,1139487.1794871795,101297509.15750916,34466666.666666664,79.86944,1.0,1.0,1.0,1.0,1.0,25.0,,0 days 00:00:00
2023-11-09 13:09:44.122,0.84470814,0.9258759,0.5271322,0.6897886,0.5134899,0.18636027,0.25704768,0.42799747,0.9082106,0.21641605,0.1696247,1.0531639,0.7443858,0.19657241,0.023278465,0.8537748,0.42692694,-0.14532535,0.15482053,0.72453034,791.3553,787.72894,793.7729,800.2198,930.3663,17.999998,0.0,0.38751220703125,0.07611083984375,0.9188232421875,3.30474853515625,-5.03936767578125,0.10467529296875,1139487.1794871795,101297509.15750916,34466666.666666664,79.86944,1.0,1.0,1.0,1.0,1.0,25.0,,0 days 00:00:00
2023-11-09 13:09:44.148,0.84470814,0.9258759,0.5271322,0.6897886,0.5134899,0.18636027,0.25704768,0.42799747,0.9082106,0.21641605,0.1696247,1.0531639,0.7443858,0.19657241,0.023278465,0.8537748,0.42692694,-0.14532535,0.15482053,0.72453034,803.0403,798.20514,791.3553,802.23444,876.77655,17.999998,0.0,0.38751220703125,0.07611083984375,0.9188232421875,3.30474853515625,-5.03936767578125,0.10467529296875,1139487.1794871795,101297509.15750916,34466666.666666664,79.86944,1.0,1.0,1.0,1.0,1.0,25.0,,0 days 00:00:00.026000
2023-11-09 13:09:44.149,0.84470814,0.9258759,0.5271322,0.6897886,0.5134899,0.18636027,0.25704768,0.42799747,0.9082106,0.21641605,0.1696247,1.0531639,0.7443858,0.19657241,0.023278465,0.8537748,0.42692694,-0.14532535,0.15482053,0.72453034,804.2491,805.4579,795.78754,809.89014,744.21246,17.999998,0.0,0.38751220703125,0.07611083984375,0.9188232421875,3.30474853515625,-5.03936767578125,0.10467529296875,1139487.1794871795,101297509.15750916,34466666.666666664,79.86944,1.0,1.0,1.0,1.0,1.0,25.0,,0 days 00:00:00.001000
2023-11-09 13:09:44.149,0.84470814,0.9258759,0.5271322,0.6897886,0.5134899,0.18636027,0.25704768,0.42799747,0.9082106,0.21641605,0.1696247,1.0531639,0.7443858,0.19657241,0.023278465,0.8537748,0.42692694,-0.14532535,0.15482053,0.72453034,786.9231,797.3993,811.9048,818.3516,756.7033,17.999998,0.0,0.38751220703125,0.07611083984375,0.9188232421875,3.30474853515625,-5.03936767578125,0.10467529296875,1139487.1794871795,101297509.15750916,34466666.666666664,79.86944,1.0,1.0,1.0,1.0,1.0,25.0,,0 days 00:00:00
2023-11-09 13:09:44.150,0.84470814,0.9258759,0.5271322,0.6897886,0.5134899,0.18636027,0.25704768,0.42799747,0.9082106,0.21641605,0.1696247,1.0531639,0.7443858,0.19657241,0.023278465,0.8537748,0.42692694,-0.14532535,0.15482053,0.72453034,792.1612,796.1905,800.2198,804.2491,792.5641,17.999998,0.0,0.38751220703125,0.07611083984375,0.9188232421875,3.30474853515625,-5.03936767578125,0.10467529296875,1139487.1794871795,101297509.15750916,34466666.666666664,79.86944,1.0,1.0,1.0,1.0,1.0,25.0,,0 days 00:00:00.001000
2023-11-09 13:09:44.150,0.84470814,0.9258759,0.5271322,0.6897886,0.5134899,0.18636027,0.25704768,0.42799747,0.9082106,0.21641605,0.1696247,1.0531639,0.7443858,0.19657241,0.023278465,0.8537748,0.42692694,-0.14532535,0.15482053,0.72453034,796.1905,799.41394,784.10254,780.07324,769.19415,17.999998,0.0,0.38751220703125,0.07611083984375,0.9188232421875,3.30474853515625,-5.03936767578125,0.10467529296875,1139487.1794871795,101297509.15750916,34466666.666666664,79.86944,1.0,1.0,1.0,1.0,1.0,25.0,,0 days 00:00:00
2023-11-09 13:09:44.151,0.84470814,0.9258759,0.5271322,0.6897886,0.5134899,0.18636027,0.25704768,0.42799747,0.9082106,0.21641605,0.1696247,1.0531639,0.7443858,0.19657241,0.023278465,0.8537748,0.42692694,-0.14532535,0.15482053,0.72453034,797.8022,798.20514,796.1905,776.8498,757.50916,17.999998,0.0,0.38751220703125,0.07611083984375,0.9188232421875,3.30474853515625,-5.03936767578125,0.10467529296875,1139487.1794871795,101297509.15750916,34466666.666666664,79.86944,1.0,1.0,1.0,1.0,1.0,25.0,,0 days 00:00:00.001000
2023-11-09 13:09:44.151,0.84470814,0.9258759,0.5271322,0.6897886,0.5134899,0.18636027,0.25704768,0.42799747,0.9082106,0.21641605,0.1696247,1.0531639,0.7443858,0.19657241,0.023278465,0.8537748,0.42692694,-0.14532535,0.15482053,0.72453034,803.0403,807.8755,805.05493,783.2967,798.60803,17.999998,0.0,0.38751220703125,0.07611083984375,0.9188232421875,3.30474853515625,-5.03936767578125,0.10467529296875,1139487.1794871795,101297509.15750916,34466666.666666664,79.86944,1.0,1.0,1.0,1.0,1.0,25.0,,0 days 00:00:00
2023-11-09 13:09:44.151,0.84470814,0.9258759,0.5271322,0.6897886,0.5134899,0.18636027,0.25704768,0.42799747,0.9082106,0.21641605,0.1696247,1.0531639,0.7443858,0.19657241,0.023278465,0.8537748,0.42692694,-0.14532535,0.15482053,0.72453034,821.5751,807.47253,812.71063,805.05493,1068.9744,17.999998,0.0,0.38751220703125,0.07611083984375,0.9188232421875,3.30474853515625,-5.03936767578125,0.10467529296875,1139487.1794871795,101297509.15750916,34466666.666666664,79.86944,1.0,1.0,1.0,1.0,1.0,25.0,,0 days 00:00:00
2023-11-09 13:09:44.152,0.84470814,0.9258759,0.5271322,0.6897886,0.5134899,0.18636027,0.25704768,0.42799747,0.9082106,0.21641605,0.1696247,1.0531639,0.7443858,0.19657241,0.023278465,0.8537748,0.42692694,-0.14532535,0.15482053,0.72453034,814.7253,809.4872,810.696,807.8755,1037.1428,17.999998,0.0,0.38751220703125,0.07611083984375,0.9188232421875,3.30474853515625,-5.03936767578125,0.10467529296875,1139487.1794871795,101297509.15750916,34466666.666666664,79.86944,1.0,1.0,1.0,1.0,1.0,25.0,,0 days 00:00:00.001000
2023-11-09 13:09:44.152,0.84470814,0.9258759,0.5271322,0.6897886,0.5134899,0.18636027,0.25704768,0.42799747,0.9082106,0.21641605,0.1696247,1.0531639,0.7443858,0.19657241,0.023278465,0.8537748,0.42692694,-0.14532535,0.15482053,0.72453034,790.9524,815.9341,798.60803,794.17584,740.18317,17.999998,0.0,0.38751220703125,0.07611083984375,0.9188232421875,3.30474853515625,-5.03936767578125,0.10467529296875,1139487.1794871795,101297509.15750916,34466666.666666664,79.86944,1.0,1.0,1.0,1.0,1.0,25.0,,0 days 00:00:00
2023-11-09 13:09:44.153,0.84470814,0.9258759,0.5271322,0.6897886,0.5134899,0.18636027,0.25704768,0.42799747,0.9082106,0.21641605,0.1696247,1.0531639,0.7443858,0.19657241,0.023278465,0.8537748,0.42692694,-0.14532535,0.15482053,0.72453034,789.34064,802.23444,788.1319,791.75824,737.76556,17.999998,0.0,0.38751220703125,0.07611083984375,0.9188232421875,3.30474853515625,-5.03936767578125,0.10467529296875,1139487.1794871795,101297509.15750916,34466666.666666664,79.86944,1.0,1.0,1.0,1.0,1.0,25.0,,0 days 00:00:00.001000
2023-11-09 13:09:44.153,0.88317734,0.88237774,0.5271322,0.77969813,0.46116543,0.14479281,0.25704768,0.57982653,0.8018277,0.28930515,0.1696247,1.1676723,0.73082024,0.17523825,0.023278465,0.8559858,0.43547875,-0.17058934,0.15482053,0.7096923,809.89014,800.2198,788.93774,775.64105,762.3443,19.999998,0.0,0.38751220703125,0.07611083984375,0.9188232421875,3.30474853515625,-5.03936767578125,0.10467529296875,1139487.1794871795,101297509.15750916,34466666.666666664,79.86944,1.0,1.0,1.0,1.0,1.0,25.0,,0 days 00:00:00
2023-11-09 13:09:44.220,0.88317734,0.88237774,0.5271322,0.77969813,0.46116543,0.14479281,0.25704768,0.57982653,0.8018277,0.28930515,0.1696247,1.1676723,0.73082024,0.17523825,0.023278465,0.8559858,0.43547875,-0.17058934,0.15482053,0.7096923,810.293,807.47253,801.02563,783.69965,718.4249,19.999998,0.0,0.38916015625,0.07452392578125,0.91766357421875,2.76641845703125,-5.630035400390625,0.545806884765625,1135457.8754578754,101421611.72161172,34469890.10989011,79.86944,1.0,1.0,1.0,1.0,1.0,25.0,,0 days 00:00:00.067000
2023-11-09 13:09:44.221,0.88317734,0.88237774,0.5271322,0.77969813,0.46116543,0.14479281,0.25704768,0.57982653,0.8018277,0.28930515,0.1696247,1.1676723,0.73082024,0.17523825,0.023278465,0.8559858,0.43547875,-0.17058934,0.15482053,0.7096923,789.34064,795.78754,795.38464,786.52014,688.60803,19.999998,0.0,0.38916015625,0.07452392578125,0.91766357421875,2.76641845703125,-5.630035400390625,0.545806884765625,1135457.8754578754,101421611.72161172,34469890.10989011,79.86944,1.0,1.0,1.0,1.0,1.0,25.0,,0 days 00:00:00.001000
2023-11-09 13:09:44.222,0.88317734,0.88237774,0.5271322,0.77969813,0.46116543,0.14479281,0.25704768,0.57982653,0.8018277,0.28930515,0.1696247,1.1676723,0.73082024,0.17523825,0.023278465,0.8559858,0.43547875,-0.17058934,0.15482053,0.7096923,811.9048,788.5348,790.9524,804.2491,692.23444,19.999998,0.0,0.38916015625,0.07452392578125,0.91766357421875,2.76641845703125,-5.630035400390625,0.545806884765625,1135457.8754578754,101421611.72161172,34469890.10989011,79.86944,1.0,1.0,1.0,1.0,1.0,25.0,,0 days 00:00:00.001000
2023-11-09 13:09:44.222,0.88317734,0.88237774,0.5271322,0.77969813,0.46116543,0.14479281,0.25704768,0.57982653,0.8018277,0.28930515,0.1696247,1.1676723,0.73082024,0.17523825,0.023278465,0.8559858,0.43547875,-0.17058934,0.15482053,0.7096923,831.2454,798.60803,798.60803,814.7253,728.49817,19.999998,0.0,0.38916015625,0.07452392578125,0.91766357421875,2.76641845703125,-5.630035400390625,0.545806884765625,1135457.8754578754,101421611.72161172,34469890.10989011,79.86944,1.0,1.0,1.0,1.0,1.0,25.0,,0 days 00:00:00
2023-11-09 13:09:44.223,0.88317734,0.88237774,0.5271322,0.77969813,0.46116543,0.14479281,0.25704768,0.57982653,0.8018277,0.28930515,0.1696247,1.1676723,0.73082024,0.17523825,0.023278465,0.8559858,0.43547875,-0.17058934,0.15482053,0.7096923,825.2015,803.44324,809.4872,805.8608,774.0293,19.999998,0.0,0.38916015625,0.07452392578125,0.91766357421875,2.76641845703125,-5.630035400390625,0.545806884765625,1135457.8754578754,101421611.72161172,34469890.10989011,79.86944,1.0,1.0,1.0,1.0,1.0,25.0,,0 days 00:00:00.001000
2023-11-09 13:09:44.223,0.88317734,0.88237774,0.5271322,0.77969813,0.46116543,0.14479281,0.25704768,0.57982653,0.8018277,0.28930515,0.1696247,1.1676723,0.73082024,0.17523825,0.023278465,0.8559858,0.43547875,-0.17058934,0.15482053,0.7096923,834.87177,805.05493,824.3956,825.6044,755.4945,19.999998,0.0,0.38916015625,0.07452392578125,0.91766357421875,2.76641845703125,-5.630035400390625,0.545806884765625,1135457.8754578754,101421611.72161172,34469890.10989011,79.86944,1.0,1.0,1.0,1.0,1.0,25.0,,0 days 00:00:00
2023-11-09 13:09:44.224,0.88317734,0.88237774,0.5271322,0.77969813,0.46116543,0.14479281,0.25704768,0.57982653,0.8018277,0.28930515,0.1696247,1.1676723,0.73082024,0.17523825,0.023278465,0.8559858,0.43547875,-0.17058934,0.15482053,0.7096923,850.18317,807.8755,828.4249,862.27106,831.6484,19.999998,0.0,0.38916015625,0.07452392578125,0.91766357421875,2.76641845703125,-5.630035400390625,0.545806884765625,1135457.8754578754,101421611.72161172,34469890.10989011,79.86944,1.0,1.0,1.0,1.0,1.0,25.0,,0 days 00:00:00.001000
2023-11-09 13:09:44.225,0.88317734,0.88237774,0.5271322,0.77969813,0.46116543,0.14479281,0.25704768,0.57982653,0.8018277,0.28930515,0.1696247,1.1676723,0.73082024,0.17523825,0.023278465,0.8559858,0.43547875,-0.17058934,0.15482053,0.7096923,844.5421,795.38464,819.5604,867.9121,1069.7803,19.999998,0.0,0.38916015625,0.07452392578125,0.91766357421875,2.76641845703125,-5.630035400390625,0.545806884765625,1135457.8754578754,101421611.72161172,34469890.10989011,79.86944,1.0,1.0,1.0,1.0,1.0,25.0,,0 days 00:00:00.001000
2023-11-09 13:09:44.225,0.88317734,0.88237774,0.5271322,0.77969813,0.46116543,0.14479281,0.25704768,0.57982653,0.8018277,0.28930515,0.1696247,1.1676723,0.73082024,0.17523825,0.023278465,0.8559858,0.43547875,-0.17058934,0.15482053,0.7096923,828.8278,791.3553,816.7399,828.022,961.79486,19.999998,0.0,0.38916015625,0.07452392578125,0.91766357421875,2.76641845703125,-5.630035400390625,0.545806884765625,1135457.8754578754,101421611.72161172,34469890.10989011,79.86944,1.0,1.0,1.0,1.0,1.0,25.0,,0 days 00:00:00
2023-11-09 13:09:44.226,0.88317734,0.88237774,0.5271322,0.77969813,0.46116543,0.14479281,0.25704768,0.57982653,0.8018277,0.28930515,0.1696247,1.1676723,0.73082024,0.17523825,0.023278465,0.8559858,0.43547875,-0.17058934,0.15482053,0.7096923,833.2601,807.47253,814.7253,829.6337,765.9707,19.999998,0.0,0.38916015625,0.07452392578125,0.91766357421875,2.76641845703125,-5.630035400390625,0.545806884765625,1135457.8754578754,101421611.72161172,34469890.10989011,79.86944,1.0,1.0,1.0,1.0,1.0,25.0,,0 days 00:00:00.001000
2023-11-09 13:09:44.227,0.88317734,0.88237774,0.5271322,0.77969813,0.46116543,0.14479281,0.25704768,0.57982653,0.8018277,0.28930515,0.1696247,1.1676723,0.73082024,0.17523825,0.023278465,0.8559858,0.43547875,-0.17058934,0.15482053,0.7096923,855.82416,801.02563,812.3077,845.34796,816.337,19.999998,0.0,0.38916015625,0.07452392578125,0.91766357421875,2.76641845703125,-5.630035400390625,0.545806884765625,1135457.8754578754,101421611.72161172,34469890.10989011,79.86944,1.0,1.0,1.0,1.0,1.0,25.0,,0 days 00:00:00.001000
2023-11-09 13:09:44.227,0.88317734,0.88237774,0.5271322,0.77969813,0.46116543,0.14479281,0.25704768,0.57982653,0.8018277,0.28930515,0.1696247,1.1676723,0.73082024,0.17523825,0.023278465,0.8559858,0.43547875,-0.17058934,0.15482053,0.7096923,848.97437,795.38464,816.337,837.28937,842.1245,19.999998,0.0,0.38916015625,0.07452392578125,0.91766357421875,2.76641845703125,-5.630035400390625,0.545806884765625,1135457.8754578754,101421611.72161172,34469890.10989011,79.86944,1.0,1.0,1.0,1.0,1.0,25.0,,0 days 00:00:00
2023-11-09 13:09:44.260,0.88317734,0.88237774,0.5271322,0.77969813,0.46116543,0.14479281,0.25704768,0.57982653,0.8018277,0.28930515,0.1696247,1.1676723,0.73082024,0.17523825,0.023278465,0.8559858,0.43547875,-0.17058934,0.15482053,0.7096923,819.5604,801.8315,817.5458,832.8571,710.7692,19.999998,0.0,0.4012451171875,0.07611083984375,0.92669677734375,3.102874755859375,-5.6524658203125,0.171966552734375,1135457.8754578754,101421611.72161172,34469890.10989011,79.86944,1.0,1.0,1.0,1.0,1.0,25.0,,0 days 00:00:00.033000
2023-11-09 13:09:44.261,0.88317734,0.88237774,0.5271322,0.77969813,0.46116543,0.14479281,0.25704768,0.57982653,0.8018277,0.28930515,0.1696247,1.1676723,0.73082024,0.17523825,0.023278465,0.8559858,0.43547875,-0.17058934,0.15482053,0.7096923,826.0073,805.05493,820.7692,834.0659,717.2161,19.999998,0.0,0.4012451171875,0.07611083984375,0.92669677734375,3.102874755859375,-5.6524658203125,0.171966552734375,1135457.8754578754,101421611.72161172,34469890.10989011,79.86944,1.0,1.0,1.0,1.0,1.0,25.0,,0 days 00:00:00.001000
2023-11-09 13:09:44.261,0.88317734,0.88237774,0.5271322,0.77969813,0.46116543,0.14479281,0.25704768,0.57982653,0.8018277,0.28930515,0.1696247,1.1676723,0.73082024,0.17523825,0.023278465,0.8559858,0.43547875,-0.17058934,0.15482053,0.7096923,840.5128,801.02563,830.4396,851.79486,909.011,19.999998,0.0,0.4012451171875,0.07611083984375,0.92669677734375,3.102874755859375,-5.6524658203125,0.171966552734375,1135457.8754578754,101421611.72161172,34469890.10989011,79.86944,1.0,1.0,1.0,1.0,1.0,25.0,,0 days 00:00:00
2023-11-09 13:09:44.261,0.88317734,0.88237774,0.5271322,0.77969813,0.46116543,0.14479281,0.25704768,0.57982653,0.8018277,0.28930515,0.1696247,1.1676723,0.73082024,0.17523825,0.023278465,0.8559858,0.43547875,-0.17058934,0.15482053,0.7096923,829.6337,799.41394,833.663,835.6777,889.2674,19.999998,0.0,0.4012451171875,0.07611083984375,0.92669677734375,3.102874755859375,-5.6524658203125,0.171966552734375,1135457.8754578754,101421611.72161172,34469890.10989011,79.86944,1.0,1.0,1.0,1.0,1.0,25.0,,0 days 00:00:00
2023-11-09 13:09:44.261,0.88317734,0.88237774,0.5271322,0.77969813,0.46116543,0.14479281,0.25704768,0.57982653,0.8018277,0.28930515,0.1696247,1.1676723,0.73082024,0.17523825,0.023278465,0.8559858,0.43547875,-0.17058934,0.15482053,0.7096923,821.5751,803.0403,838.49817,826.8132,718.022,19.999998,0.0,0.4012451171875,0.07611083984375,0.92669677734375,3.102874755859375,-5.6524658203125,0.171966552734375,1135457.8754578754,101421611.72161172,34469890.10989011,79.86944,1.0,1.0,1.0,1.0,1.0,25.0,,0 days 00:00:00
2023-11-09 13:09:44.261,0.88317734,0.88237774,0.5271322,0.77969813,0.46116543,0.14479281,0.25704768,0.57982653,0.8018277,0.28930515,0.1696247,1.1676723,0.73082024,0.17523825,0.023278465,0.8559858,0.43547875,-0.17058934,0.15482053,0.7096923,822.381,797.3993,849.3773,853.4066,762.3443,19.999998,0.0,0.4012451171875,0.07611083984375,0.92669677734375,3.102874755859375,-5.6524658203125,0.171966552734375,1135457.8754578754,101421611.72161172,34469890.10989011,79.86944,1.0,1.0,1.0,1.0,1.0,25.0,,0 days 00:00:00
2023-11-09 13:09:44.262,0.88317734,0.88237774,0.5271322,0.77969813,0.46116543,0.14479281,0.25704768,0.57982653,0.8018277,0.28930515,0.1696247,1.1676723,0.73082024,0.17523825,0.023278465,0.8559858,0.43547875,-0.17058934,0.15482053,0.7096923,829.2308,791.75824,858.6447,864.2857,985.16486,19.999998,0.0,0.4012451171875,0.07611083984375,0.92669677734375,3.102874755859375,-5.6524658203125,0.171966552734375,1135457.8754578754,101421611.72161172,34469890.10989011,79.86944,1.0,1.0,1.0,1.0,1.0,25.0,,0 days 00:00:00.001000
2023-11-09 13:09:44.262,0.88317734,0.88237774,0.5271322,0.77969813,0.46116543,0.14479281,0.25704768,0.57982653,0.8018277,0.28930515,0.1696247,1.1676723,0.73082024,0.17523825,0.023278465,0.8559858,0.43547875,-0.17058934,0.15482053,0.7096923,813.1135,792.1612,846.1539,829.2308,916.26373,19.999998,0.0,0.4012451171875,0.07611083984375,0.92669677734375,3.102874755859375,-5.6524658203125,0.171966552734375,1135457.8754578754,101421611.72161172,34469890.10989011,79.86944,1.0,1.0,1.0,1.0,1.0,25.0,,0 days 00:00:00
2023-11-09 13:09:44.262,0.88317734,0.88237774,0.5271322,0.77969813,0.46116543,0.14479281,0.25704768,0.57982653,0.8018277,0.28930515,0.1696247,1.1676723,0.73082024,0.17523825,0.023278465,0.8559858,0.43547875,-0.17058934,0.15482053,0.7096923,793.36993,794.57874,823.5897,804.2491,750.2564,19.999998,0.0,0.4012451171875,0.07611083984375,0.92669677734375,3.102874755859375,-5.6524658203125,0.171966552734375,1135457.8754578754,101421611.72161172,34469890.10989011,79.86944,1.0,1.0,1.0,1.0,1.0,25.0,,0 days 00:00:00
2023-11-09 13:09:44.262,0.88317734,0.88237774,0.5271322,0.77969813,0.46116543,0.14479281,0.25704768,0.57982653,0.8018277,0.28930515,0.1696247,1.1676723,0.73082024,0.17523825,0.023278465,0.8559858,0.43547875,-0.17058934,0.15482053,0.7096923,795.38464,798.20514,833.2601,805.05493,795.38464,19.999998,0.0,0.4012451171875,0.07611083984375,0.92669677734375,3.102874755859375,-5.6524658203125,0.171966552734375,1135457.8754578754,101421611.72161172,34469890.10989011,79.86944,1.0,1.0,1.0,1.0,1.0,25.0,,0 days 00:00:00
2023-11-09 13:09:44.262,0.88317734,0.88237774,0.5271322,0.77969813,0.46116543,0.14479281,0.25704768,0.57982653,0.8018277,0.28930515,0.1696247,1.1676723,0.73082024,0.17523825,0.023278465,0.8559858,0.43547875,-0.17058934,0.15482053,0.7096923,798.20514,797.8022,848.1685,797.8022,840.5128,19.999998,0.0,0.4012451171875,0.07611083984375,0.92669677734375,3.102874755859375,-5.6524658203125,0.171966552734375,1135457.8754578754,101421611.72161172,34469890.10989011,79.86944,1.0,1.0,1.0,1.0,1.0,25.0,,0 days 00:00:00
2023-11-09 13:09:44.263,0.88317734,0.88237774,0.5271322,0.77969813,0.46116543,0.14479281,0.25704768,0.57982653,0.8018277,0.28930515,0.1696247,1.1676723,0.73082024,0.17523825,0.023278465,0.8559858,0.43547875,-0.17058934,0.15482053,0.7096923,788.5348,796.1905,852.1978,796.1905,844.1392,19.999998,0.0,0.4012451171875,0.07611083984375,0.92669677734375,3.102874755859375,-5.6524658203125,0.171966552734375,1135457.8754578754,101421611.72161172,34469890.10989011,79.86944,1.0,1.0,1.0,1.0,1.0,25.0,,0 days 00:00:00.001000
2023-11-09 13:09:44.297,0.88317734,0.88237774,0.5271322,0.77969813,0.46116543,0.14479281,0.25704768,0.57982653,0.8018277,0.28930515,0.1696247,1.1676723,0.73082024,0.17523825,0.023278465,0.8559858,0.43547875,-0.17058934,0.15482053,0.7096923,779.2674,800.6227,859.0476,800.2198,799.41394,19.999998,0.0,0.3992919921875,0.0751953125,0.908447265625,2.5421142578125,-5.779571533203125,0.979461669921875,1141904.761904762,101367619.04761904,34460219.78021978,79.86944,1.0,1.0,1.0,1.0,1.0,25.0,,0 days 00:00:00.034000
2023-11-09 13:09:44.298,1.0691478,0.85153157,0.5271322,0.9001411,0.7649742,0.12471,0.25704768,0.73537993,1.2596606,0.35252213,0.1696247,1.2349244,0.76916724,0.16700046,0.023278465,0.87927026,0.47804558,-0.18420264,0.15482053,0.7035521,802.23444,801.8315,862.27106,801.8315,783.2967,21.999996,0.0,0.3992919921875,0.0751953125,0.908447265625,2.5421142578125,-5.779571533203125,0.979461669921875,1141904.761904762,101367619.04761904,34460219.78021978,79.86944,1.0,1.0,1.0,1.0,1.0,25.0,,0 days 00:00:00.001000
2023-11-09 13:09:44.300,1.0691478,0.85153157,0.5271322,0.9001411,0.7649742,0.12471,0.25704768,0.73537993,1.2596606,0.35252213,0.1696247,1.2349244,0.76916724,0.16700046,0.023278465,0.87927026,0.47804558,-0.18420264,0.15482053,0.7035521,793.7729,801.4286,862.27106,792.1612,792.96704,21.999996,0.0,0.3992919921875,0.0751953125,0.908447265625,2.5421142578125,-5.779571533203125,0.979461669921875,1141904.761904762,101367619.04761904,34460219.78021978,79.86944,1.0,1.0,1.0,1.0,1.0,25.0,,0 days 00:00:00.002000
2023-11-09 13:09:44.301,1.0691478,0.85153157,0.5271322,0.9001411,0.7649742,0.12471,0.25704768,0.73537993,1.2596606,0.35252213,0.1696247,1.2349244,0.76916724,0.16700046,0.023278465,0.87927026,0.47804558,-0.18420264,0.15482053,0.7035521,773.6264,804.65204,869.12085,770.40295,712.381,21.999996,0.0,0.3992919921875,0.0751953125,0.908447265625,2.5421142578125,-5.779571533203125,0.979461669921875,1141904.761904762,101367619.04761904,34460219.78021978,79.86944,1.0,1.0,1.0,1.0,1.0,25.0,,0 days 00:00:00.001000
2023-11-09 13:09:44.301,1.0691478,0.85153157,0.5271322,0.9001411,0.7649742,0.12471,0.25704768,0.73537993,1.2596606,0.35252213,0.1696247,1.2349244,0.76916724,0.16700046,0.023278465,0.87927026,0.47804558,-0.18420264,0.15482053,0.7035521,774.83514,800.2198,879.59705,767.1795,688.60803,21.999996,0.0,0.3992919921875,0.0751953125,0.908447265625,2.5421142578125,-5.779571533203125,0.979461669921875,1141904.761904762,101367619.04761904,34460219.78021978,79.86944,1.0,1.0,1.0,1.0,1.0,25.0,,0 days 00:00:00
2023-11-09 13:09:44.302,1.0691478,0.85153157,0.5271322,0.9001411,0.7649742,0.12471,0.25704768,0.73537993,1.2596606,0.35252213,0.1696247,1.2349244,0.76916724,0.16700046,0.023278465,0.87927026,0.47804558,-0.18420264,0.15482053,0.7035521,785.7143,799.011,873.95605,788.93774,795.38464,21.999996,0.0,0.3992919921875,0.0751953125,0.908447265625,2.5421142578125,-5.779571533203125,0.979461669921875,1141904.761904762,101367619.04761904,34460219.78021978,79.86944,1.0,1.0,1.0,1.0,1.0,25.0,,0 days 00:00:00.001000
2023-11-09 13:09:44.302,1.0691478,0.85153157,0.5271322,0.9001411,0.7649742,0.12471,0.25704768,0.73537993,1.2596606,0.35252213,0.1696247,1.2349244,0.76916724,0.16700046,0.023278465,0.87927026,0.47804558,-0.18420264,0.15482053,0.7035521,792.5641,803.8461,869.5238,795.78754,895.7143,21.999996,0.0,0.3992919921875,0.0751953125,0.908447265625,2.5421142578125,-5.779571533203125,0.979461669921875,1141904.761904762,101367619.04761904,34460219.78021978,79.86944,1.0,1.0,1.0,1.0,1.0,25.0,,0 days 00:00:00
2023-11-09 13:09:44.303,1.0691478,0.85153157,0.5271322,0.9001411,0.7649742,0.12471,0.25704768,0.73537993,1.2596606,0.35252213,0.1696247,1.2349244,0.76916724,0.16700046,0.023278465,0.87927026,0.47804558,-0.18420264,0.15482053,0.7035521,782.8938,807.8755,872.3443,789.7436,821.978,21.999996,0.0,0.3992919921875,0.0751953125,0.908447265625,2.5421142578125,-5.779571533203125,0.979461669921875,1141904.761904762,101367619.04761904,34460219.78021978,79.86944,1.0,1.0,1.0,1.0,1.0,25.0,,0 days 00:00:00.001000
2023-11-09 13:09:44.303,1.0691478,0.85153157,0.5271322,0.9001411,0.7649742,0.12471,0.25704768,0.73537993,1.2596606,0.35252213,0.1696247,1.2349244,0.76916724,0.16700046,0.023278465,0.87927026,0.47804558,-0.18420264,0.15482053,0.7035521,786.1172,810.293,877.1795,792.5641,718.022,21.999996,0.0,0.3992919921875,0.0751953125,0.908447265625,2.5421142578125,-5.779571533203125,0.979461669921875,1141904.761904762,101367619.04761904,34460219.78021978,79.86944,1.0,1.0,1.0,1.0,1.0,25.0,,0 days 00:00:00
2023-11-09 13:09:44.304,1.0691478,0.85153157,0.5271322,0.9001411,0.7649742,0.12471,0.25704768,0.73537993,1.2596606,0.35252213,0.1696247,1.2349244,0.76916724,0.16700046,0.023278465,0.87927026,0.47804558,-0.18420264,0.15482053,0.7035521,775.2381,807.8755,882.01465,790.9524,815.9341,21.999996,0.0,0.3992919921875,0.0751953125,0.908447265625,2.5421142578125,-5.779571533203125,0.979461669921875,1141904.761904762,101367619.04761904,34460219.78021978,79.86944,1.0,1.0,1.0,1.0,1.0,25.0,,0 days 00:00:00.001000
2023-11-09 13:09:44.304,1.0691478,0.85153157,0.5271322,0.9001411,0.7649742,0.12471,0.25704768,0.73537993,1.2596606,0.35252213,0.1696247,1.2349244,0.76916724,0.16700046,0.023278465,0.87927026,0.47804558,-0.18420264,0.15482053,0.7035521,769.19415,804.2491,883.22345,792.1612,899.7436,21.999996,0.0,0.3992919921875,0.0751953125,0.908447265625,2.5421142578125,-5.779571533203125,0.979461669921875,1141904.761904762,101367619.04761904,34460219.78021978,79.86944,1.0,1.0,1.0,1.0,1.0,25.0,,0 days 00:00:00
2023-11-09 13:09:44.305,1.0691478,0.85153157,0.5271322,0.9001411,0.7649742,0.12471,0.25704768,0.73537993,1.2596606,0.35252213,0.1696247,1.2349244,0.76916724,0.16700046,0.023278465,0.87927026,0.47804558,-0.18420264,0.15482053,0.7035521,785.7143,807.8755,902.1612,807.0696,820.3663,21.999996,0.0,0.3992919921875,0.0751953125,0.908447265625,2.5421142578125,-5.779571533203125,0.979461669921875,1141904.761904762,101367619.04761904,34460219.78021978,79.86944,1.0,1.0,1.0,1.0,1.0,25.0,,0 days 00:00:00.001000
2023-11-09 13:09:44.330,1.0691478,0.85153157,0.5271322,0.9001411,0.7649742,0.12471,0.25704768,0.73537993,1.2596606,0.35252213,0.1696247,1.2349244,0.76916724,0.16700046,0.023278465,0.87927026,0.47804558,-0.18420264,0.15482053,0.7035521,781.28204,815.12823,897.326,805.8608,764.35895,21.999996,0.0,0.3992919921875,0.0751953125,0.908447265625,2.5421142578125,-5.779571533203125,0.979461669921875,1141904.761904762,101367619.04761904,34460219.78021978,79.86944,1.0,1.0,1.0,1.0,1.0,25.0,,0 days 00:00:00.025000
2023-11-09 13:09:44.330,1.0691478,0.85153157,0.5271322,0.9001411,0.7649742,0.12471,0.25704768,0.73537993,1.2596606,0.35252213,0.1696247,1.2349244,0.76916724,0.16700046,0.023278465,0.87927026,0.47804558,-0.18420264,0.15482053,0.7035521,794.9817,807.8755,889.67035,810.696,866.30035,21.999996,0.0,0.3992919921875,0.0751953125,0.908447265625,2.5421142578125,-5.779571533203125,0.979461669921875,1141904.761904762,101367619.04761904,34460219.78021978,79.86944,1.0,1.0,1.0,1.0,1.0,25.0,,0 days 00:00:00
2023-11-09 13:09:44.331,1.0691478,0.85153157,0.5271322,0.9001411,0.7649742,0.12471,0.25704768,0.73537993,1.2596606,0.35252213,0.1696247,1.2349244,0.76916724,0.16700046,0.023278465,0.87927026,0.47804558,-0.18420264,0.15482053,0.7035521,788.5348,800.6227,893.69965,793.7729,870.32965,21.999996,0.0,0.3992919921875,0.0751953125,0.908447265625,2.5421142578125,-5.779571533203125,0.979461669921875,1141904.761904762,101367619.04761904,34460219.78021978,79.86944,1.0,1.0,1.0,1.0,1.0,25.0,,0 days 00:00:00.001000
2023-11-09 13:09:44.331,1.0691478,0.85153157,0.5271322,0.9001411,0.7649742,0.12471,0.25704768,0.73537993,1.2596606,0.35252213,0.1696247,1.2349244,0.76916724,0.16700046,0.023278465,0.87927026,0.47804558,-0.18420264,0.15482053,0.7035521,754.2857,804.2491,873.5531,761.53845,734.5421,21.999996,0.0,0.3992919921875,0.0751953125,0.908447265625,2.5421142578125,-5.779571533203125,0.979461669921875,1141904.761904762,101367619.04761904,34460219.78021978,79.86944,1.0,1.0,1.0,1.0,1.0,25.0,,0 days 00:00:00
2023-11-09 13:09:44.332,1.0691478,0.85153157,0.5271322,0.9001411,0.7649742,0.12471,0.25704768,0.73537993,1.2596606,0.35252213,0.1696247,1.2349244,0.76916724,0.16700046,0.023278465,0.87927026,0.47804558,-0.18420264,0.15482053,0.7035521,762.3443,803.8461,886.8498,770.0,744.21246,21.999996,0.0,0.3992919921875,0.0751953125,0.908447265625,2.5421142578125,-5.779571533203125,0.979461669921875,1141904.761904762,101367619.04761904,34460219.78021978,79.86944,1.0,1.0,1.0,1.0,1.0,25.0,,0 days 00:00:00.001000
2023-11-09 13:09:44.332,1.0691478,0.85153157,0.5271322,0.9001411,0.7649742,0.12471,0.25704768,0.73537993,1.2596606,0.35252213,0.1696247,1.2349244,0.76916724,0.16700046,0.023278465,0.87927026,0.47804558,-0.18420264,0.15482053,0.7035521,776.8498,811.9048,913.44324,791.3553,979.5238,21.999996,0.0,0.3992919921875,0.0751953125,0.908447265625,2.5421142578125,-5.779571533203125,0.979461669921875,1141904.761904762,101367619.04761904,34460219.78021978,79.86944,1.0,1.0,1.0,1.0,1.0,25.0,,0 days 00:00:00
2023-11-09 13:09:44.332,1.0691478,0.85153157,0.5271322,0.9001411,0.7649742,0.12471,0.25704768,0.73537993,1.2596606,0.35252213,0.1696247,1.2349244,0.76916724,0.16700046,0.023278465,0.87927026,0.47804558,-0.18420264,0.15482053,0.7035521,746.63007,813.1135,910.6227,774.0293,897.72894,21.999996,0.0,0.3992919921875,0.0751953125,0.908447265625,2.5421142578125,-5.779571533203125,0.979461669921875,1141904.761904762,101367619.04761904,34460219.78021978,79.86944,1.0,1.0,1.0,1.0,1.0,25.0,,0 days 00:00:00
2023-11-09 13:09:44.333,1.0691478,0.85153157,0.5271322,0.9001411,0.7649742,0.12471,0.25704768,0.73537993,1.2596606,0.35252213,0.1696247,1.2349244,0.76916724,0.16700046,0.023278465,0.87927026,0.47804558,-0.18420264,0.15482053,0.7035521,711.5751,812.71063,913.0403,743.4066,634.61536,21.999996,0.0,0.3992919921875,0.0751953125,0.908447265625,2.5421142578125,-5.779571533203125,0.979461669921875,1141904.761904762,101367619.04761904,34460219.78021978,79.86944,1.0,1.0,1.0,1.0,1.0,25.0,,0 days 00:00:00.001000
2023-11-09 13:09:44.333,1.0691478,0.85153157,0.5271322,0.9001411,0.7649742,0.12471,0.25704768,0.73537993,1.2596606,0.35252213,0.1696247,1.2349244,0.76916724,0.16700046,0.023278465,0.87927026,0.47804558,-0.18420264,0.15482053,0.7035521,693.44324,812.71063,928.3516,733.73627,702.3077,21.999996,0.0,0.3992919921875,0.0751953125,0.908447265625,2.5421142578125,-5.779571533203125,0.979461669921875,1141904.761904762,101367619.04761904,34460219.78021978,79.86944,1.0,1.0,1.0,1.0,1.0,25.0,,0 days 00:00:00
2023-11-09 13:09:44.334,1.0691478,0.85153157,0.5271322,0.9001411,0.7649742,0.12471,0.25704768,0.73537993,1.2596606,0.35252213,0.1696247,1.2349244,0.76916724,0.16700046,0.023278465,0.87927026,0.47804558,-0.18420264,0.15482053,0.7035521,697.0696,807.47253,936.8132,725.6777,861.4652,21.999996,0.0,0.3992919921875,0.0751953125,0.908447265625,2.5421142578125,-5.779571533203125,0.979461669921875,1141904.761904762,101367619.04761904,34460219.78021978,79.86944,1.0,1.0,1.0,1.0,1.0,25.0,,0 days 00:00:00.001000
2023-11-09 13:09:44.334,1.0691478,0.85153157,0.5271322,0.9001411,0.7649742,0.12471,0.25704768,0.73537993,1.2596606,0.35252213,0.1696247,1.2349244,0.76916724,0.16700046,0.023278465,0.87927026,0.47804558,-0.18420264,0.15482053,0.7035521,671.685,814.7253,934.3956,668.86444,732.1245,21.999996,0.0,0.3992919921875,0.0751953125,0.908447265625,2.5421142578125,-5.779571533203125,0.979461669921875,1141904.761904762,101367619.04761904,34460219.78021978,79.86944,1.0,1.0,1.0,1.0,1.0,25.0,,0 days 00:00:00
2023-11-09 13:09:44.334,1.0691478,0.85153157,0.5271322,0.9001411,0.7649742,0.12471,0.25704768,0.73537993,1.2596606,0.35252213,0.1696247,1.2349244,0.76916724,0.16700046,0.023278465,0.87927026,0.47804558,-0.18420264,0.15482053,0.7035521,652.74725,823.5897,939.2308,631.79486,638.6447,21.999996,0.0,0.3992919921875,0.0751953125,0.908447265625,2.5421142578125,-5.779571533203125,0.979461669921875,1141904.761904762,101367619.04761904,34460219.78021978,79.86944,1.0,1.0,1.0,1.0,1.0,25.0,,0 days 00:00:00
2023-11-09 13:09:44.395,1.0691478,0.85153157,0.5271322,0.9001411,0.7649742,0.12471,0.25704768,0.73537993,1.2596606,0.35252213,0.1696247,1.2349244,0.76916724,0.16700046,0.023278465,0.87927026,0.47804558,-0.18420264,0.15482053,0.7035521,643.47986,827.2161,941.6484,630.58606,655.56775,21.999996,0.0,0.4046630859375,0.069091796875,0.91485595703125,2.691650390625,-3.887939453125,0.13458251953125,1130622.7106227106,101230622.71062271,34453772.89377289,79.86944,1.0,1.0,1.0,1.0,1.0,25.0,,0 days 00:00:00.061000
2023-11-09 13:09:44.396,1.0691478,0.85153157,0.5271322,0.9001411,0.7649742,0.12471,0.25704768,0.73537993,1.2596606,0.35252213,0.1696247,1.2349244,0.76916724,0.16700046,0.023278465,0.87927026,0.47804558,-0.18420264,0.15482053,0.7035521,618.0952,828.8278,937.619,639.85345,661.6117,21.999996,0.0,0.4046630859375,0.069091796875,0.91485595703125,2.691650390625,-3.887939453125,0.13458251953125,1130622.7106227106,101230622.71062271,34453772.89377289,79.86944,1.0,1.0,1.0,1.0,1.0,25.0,,0 days 00:00:00.001000
2023-11-09 13:09:44.396,1.0691478,0.85153157,0.5271322,0.9001411,0.7649742,0.12471,0.25704768,0.73537993,1.2596606,0.35252213,0.1696247,1.2349244,0.76916724,0.16700046,0.023278465,0.87927026,0.47804558,-0.18420264,0.15482053,0.7035521,633.00366,830.4396,930.7692,653.1502,670.87915,21.999996,0.0,0.4046630859375,0.069091796875,0.91485595703125,2.691650390625,-3.887939453125,0.13458251953125,1130622.7106227106,101230622.71062271,34453772.89377289,79.86944,1.0,1.0,1.0,1.0,1.0,25.0,,0 days 00:00:00
2023-11-09 13:09:44.397,1.113925,0.8301284,0.5271322,0.92252874,0.80515224,0.11575708,0.25704768,0.761335,1.2546601,0.4092578,0.1696247,1.2349244,0.7792313,0.17001389,0.023278465,0.8913075,0.49437004,-0.1875175,0.15482053,0.7042281,661.2088,836.4835,924.7253,642.27106,648.315,23.999996,0.0,0.4046630859375,0.069091796875,0.91485595703125,2.691650390625,-3.887939453125,0.13458251953125,1130622.7106227106,101230622.71062271,34453772.89377289,79.86944,1.0,1.0,1.0,1.0,1.0,25.0,,0 days 00:00:00.001000
2023-11-09 13:09:44.399,1.113925,0.8301284,0.5271322,0.92252874,0.80515224,0.11575708,0.25704768,0.761335,1.2546601,0.4092578,0.1696247,1.2349244,0.7792313,0.17001389,0.023278465,0.8913075,0.49437004,-0.1875175,0.15482053,0.7042281,660.80585,831.6484,921.50183,638.24176,676.9231,23.999996,0.0,0.4046630859375,0.069091796875,0.91485595703125,2.691650390625,-3.887939453125,0.13458251953125,1130622.7106227106,101230622.71062271,34453772.89377289,79.86944,1.0,1.0,1.0,1.0,1.0,25.0,,0 days 00:00:00.002000
2023-11-09 13:09:44.399,1.113925,0.8301284,0.5271322,0.92252874,0.80515224,0.11575708,0.25704768,0.761335,1.2546601,0.4092578,0.1696247,1.2349244,0.7792313,0.17001389,0.023278465,0.8913075,0.49437004,-0.1875175,0.15482053,0.7042281,659.59705,828.8278,917.47253,667.6557,722.8571,23.999996,0.0,0.4046630859375,0.069091796875,0.91485595703125,2.691650390625,-3.887939453125,0.13458251953125,1130622.7106227106,101230622.71062271,34453772.89377289,79.86944,1.0,1.0,1.0,1.0,1.0,25.0,,0 days 00:00:00
2023-11-09 13:09:44.400,1.113925,0.8301284,0.5271322,0.92252874,0.80515224,0.11575708,0.25704768,0.761335,1.2546601,0.4092578,0.1696247,1.2349244,0.7792313,0.17001389,0.023278465,0.8913075,0.49437004,-0.1875175,0.15482053,0.7042281,665.2381,831.2454,908.20514,682.5641,760.7326,23.999996,0.0,0.4046630859375,0.069091796875,0.91485595703125,2.691650390625,-3.887939453125,0.13458251953125,1130622.7106227106,101230622.71062271,34453772.89377289,79.86944,1.0,1.0,1.0,1.0,1.0,25.0,,0 days 00:00:00.001000
2023-11-09 13:09:44.400,1.113925,0.8301284,0.5271322,0.92252874,0.80515224,0.11575708,0.25704768,0.761335,1.2546601,0.4092578,0.1696247,1.2349244,0.7792313,0.17001389,0.023278465,0.8913075,0.49437004,-0.1875175,0.15482053,0.7042281,685.78754,826.0073,897.326,699.89014,753.8828,23.999996,0.0,0.4046630859375,0.069091796875,0.91485595703125,2.691650390625,-3.887939453125,0.13458251953125,1130622.7106227106,101230622.71062271,34453772.89377289,79.86944,1.0,1.0,1.0,1.0,1.0,25.0,,0 days 00:00:00
2023-11-09 13:09:44.401,1.113925,0.8301284,0.5271322,0.92252874,0.80515224,0.11575708,0.25704768,0.761335,1.2546601,0.4092578,0.1696247,1.2349244,0.7792313,0.17001389,0.023278465,0.8913075,0.49437004,-0.1875175,0.15482053,0.7042281,701.50183,809.89014,897.72894,741.39197,851.39197,23.999996,0.0,0.4046630859375,0.069091796875,0.91485595703125,2.691650390625,-3.887939453125,0.13458251953125,1130622.7106227106,101230622.71062271,34453772.89377289,79.86944,1.0,1.0,1.0,1.0,1.0,25.0,,0 days 00:00:00.001000
2023-11-09 13:09:44.401,1.113925,0.8301284,0.5271322,0.92252874,0.80515224,0.11575708,0.25704768,0.761335,1.2546601,0.4092578,0.1696247,1.2349244,0.7792313,0.17001389,0.023278465,0.8913075,0.49437004,-0.1875175,0.15482053,0.7042281,716.4103,796.99634,902.1612,747.8388,1007.326,23.999996,0.0,0.4046630859375,0.069091796875,0.91485595703125,2.691650390625,-3.887939453125,0.13458251953125,1130622.7106227106,101230622.71062271,34453772.89377289,79.86944,1.0,1.0,1.0,1.0,1.0,25.0,,0 days 00:00:00
2023-11-09 13:09:44.401,1.113925,0.8301284,0.5271322,0.92252874,0.80515224,0.11575708,0.25704768,0.761335,1.2546601,0.4092578,0.1696247,1.2349244,0.7792313,0.17001389,0.023278465,0.8913075,0.49437004,-0.1875175,0.15482053,0.7042281,737.3626,814.3223,885.64105,738.97437,818.3516,23.999996,0.0,0.4046630859375,0.069091796875,0.91485595703125,2.691650390625,-3.887939453125,0.13458251953125,1130622.7106227106,101230622.71062271,34453772.89377289,79.86944,1.0,1.0,1.0,1.0,1.0,25.0,,0 days 00:00:00
2023-11-09 13:09:44.402,1.113925,0.8301284,0.5271322,0.92252874,0.80515224,0.11575708,0.25704768,0.761335,1.2546601,0.4092578,0.1696247,1.2349244,0.7792313,0.17001389,0.023278465,0.8913075,0.49437004,-0.1875175,0.15482053,0.7042281,769.19415,814.7253,872.74725,750.65936,693.8461,23.999996,0.0,0.4046630859375,0.069091796875,0.91485595703125,2.691650390625,-3.887939453125,0.13458251953125,1130622.7106227106,101230622.71062271,34453772.89377289,79.86944,1.0,1.0,1.0,1.0,1.0,25.0,,0 days 00:00:00.001000
2023-11-09 13:09:44.426,1.113925,0.8301284,0.5271322,0.92252874,0.80515224,0.11575708,0.25704768,0.761335,1.2546601,0.4092578,0.1696247,1.2349244,0.7792313,0.17001389,0.023278465,0.8913075,0.49437004,-0.1875175,0.15482053,0.7042281,790.9524,797.3993,870.7326,759.92676,818.7546,23.999996,0.0,0.402587890625,0.0721435546875,0.915283203125,2.669219970703125,-3.790740966796875,0.605621337890625,1130622.7106227106,101230622.71062271,34453772.89377289,79.86944,1.0,1.0,1.0,1.0,1.0,25.0,,0 days 00:00:00.024000
2023-11-09 13:09:44.426,1.113925,0.8301284,0.5271322,0.92252874,0.80515224,0.11575708,0.25704768,0.761335,1.2546601,0.4092578,0.1696247,1.2349244,0.7792313,0.17001389,0.023278465,0.8913075,0.49437004,-0.1875175,0.15482053,0.7042281,785.7143,805.8608,853.00366,773.6264,826.4103,23.999996,0.0,0.402587890625,0.0721435546875,0.915283203125,2.669219970703125,-3.790740966796875,0.605621337890625,1130622.7106227106,101230622.71062271,34453772.89377289,79.86944,1.0,1.0,1.0,1.0,1.0,25.0,,0 days 00:00:00
2023-11-09 13:09:44.427,1.113925,0.8301284,0.5271322,0.92252874,0.80515224,0.11575708,0.25704768,0.761335,1.2546601,0.4092578,0.1696247,1.2349244,0.7792313,0.17001389,0.023278465,0.8913075,0.49437004,-0.1875175,0.15482053,0.7042281,784.5055,794.57874,840.10986,764.35895,645.4945,23.999996,0.0,0.402587890625,0.0721435546875,0.915283203125,2.669219970703125,-3.790740966796875,0.605621337890625,1130622.7106227106,101230622.71062271,34453772.89377289,79.86944,1.0,1.0,1.0,1.0,1.0,25.0,,0 days 00:00:00.001000
2023-11-09 13:09:44.427,1.113925,0.8301284,0.5271322,0.92252874,0.80515224,0.11575708,0.25704768,0.761335,1.2546601,0.4092578,0.1696247,1.2349244,0.7792313,0.17001389,0.023278465,0.8913075,0.49437004,-0.1875175,0.15482053,0.7042281,791.75824,784.90845,840.5128,775.2381,664.83514,23.999996,0.0,0.402587890625,0.0721435546875,0.915283203125,2.669219970703125,-3.790740966796875,0.605621337890625,1130622.7106227106,101230622.71062271,34453772.89377289,79.86944,1.0,1.0,1.0,1.0,1.0,25.0,,0 days 00:00:00
2023-11-09 13:09:44.427,1.113925,0.8301284,0.5271322,0.92252874,0.80515224,0.11575708,0.25704768,0.761335,1.2546601,0.4092578,0.1696247,1.2349244,0.7792313,0.17001389,0.023278465,0.8913075,0.49437004,-0.1875175,0.15482053,0.7042281,794.17584,784.90845,829.2308,791.3553,745.0183,23.999996,0.0,0.402587890625,0.0721435546875,0.915283203125,2.669219970703125,-3.790740966796875,0.605621337890625,1130622.7106227106,101230622.71062271,34453772.89377289,79.86944,1.0,1.0,1.0,1.0,1.0,25.0,,0 days 00:00:00
2023-11-09 13:09:44.428,1.113925,0.8301284,0.5271322,0.92252874,0.80515224,0.11575708,0.25704768,0.761335,1.2546601,0.4092578,0.1696247,1.2349244,0.7792313,0.17001389,0.023278465,0.8913075,0.49437004,-0.1875175,0.15482053,0.7042281,821.5751,784.5055,824.7985,794.57874,757.50916,23.999996,0.0,0.402587890625,0.0721435546875,0.915283203125,2.669219970703125,-3.790740966796875,0.605621337890625,1130622.7106227106,101230622.71062271,34453772.89377289,79.86944,1.0,1.0,1.0,1.0,1.0,25.0,,0 days 00:00:00.001000
2023-11-09 13:09:44.428,1.113925,0.8301284,0.5271322,0.92252874,0.80515224,0.11575708,0.25704768,0.761335,1.2546601,0.4092578,0.1696247,1.2349244,0.7792313,0.17001389,0.023278465,0.8913075,0.49437004,-0.1875175,0.15482053,0.7042281,827.619,786.52014,817.1429,808.68134,789.34064,23.999996,0.0,0.402587890625,0.0721435546875,0.915283203125,2.669219970703125,-3.790740966796875,0.605621337890625,1130622.7106227106,101230622.71062271,34453772.89377289,79.86944,1.0,1.0,1.0,1.0,1.0,25.0,,0 days 00:00:00
2023-11-09 13:09:44.428,1.113925,0.8301284,0.5271322,0.92252874,0.80515224,0.11575708,0.25704768,0.761335,1.2546601,0.4092578,0.1696247,1.2349244,0.7792313,0.17001389,0.023278465,0.8913075,0.49437004,-0.1875175,0.15482053,0.7042281,830.4396,775.64105,817.5458,819.5604,782.0879,23.999996,0.0,0.402587890625,0.0721435546875,0.915283203125,2.669219970703125,-3.790740966796875,0.605621337890625,1130622.7106227106,101230622.71062271,34453772.89377289,79.86944,1.0,1.0,1.0,1.0,1.0,25.0,,0 days 00:00:00
2023-11-09 13:09:44.429,1.113925,0.8301284,0.5271322,0.92252874,0.80515224,0.11575708,0.25704768,0.761335,1.2546601,0.4092578,0.1696247,1.2349244,0.7792313,0.17001389,0.023278465,0.8913075,0.49437004,-0.1875175,0.15482053,0.7042281,863.0769,760.32965,824.3956,838.49817,1043.1868,23.999996,0.0,0.402587890625,0.0721435546875,0.915283203125,2.669219970703125,-3.790740966796875,0.605621337890625,1130622.7106227106,101230622.71062271,34453772.89377289,79.86944,1.0,1.0,1.0,1.0,1.0,25.0,,0 days 00:00:00.001000
2023-11-09 13:09:44.429,1.113925,0.8301284,0.5271322,0.92252874,0.80515224,0.11575708,0.25704768,0.761335,1.2546601,0.4092578,0.1696247,1.2349244,0.7792313,0.17001389,0.023278465,0.8913075,0.49437004,-0.1875175,0.15482053,0.7042281,837.6923,765.56775,805.4579,854.61536,1033.5165,23.999996,0.0,0.402587890625,0.0721435546875,0.915283203125,2.669219970703125,-3.790740966796875,0.605621337890625,1130622.7106227106,101230622.71062271,34453772.89377289,79.86944,1.0,1.0,1.0,1.0,1.0,25.0,,0 days 00:00:00
2023-11-09 13:09:44.429,1.113925,0.8301284,0.5271322,0.92252874,0.80515224,0.11575708,0.25704768,0.761335,1.2546601,0.4092578,0.1696247,1.2349244,0.7792313,0.17001389,0.023278465,0.8913075,0.49437004,-0.1875175,0.15482053,0.7042281,833.663,783.2967,794.57874,841.7216,736.55676,23.999996,0.0,0.402587890625,0.0721435546875,0.915283203125,2.669219970703125,-3.790740966796875,0.605621337890625,1130622.7106227106,101230622.71062271,34453772.89377289,79.86944,1.0,1.0,1.0,1.0,1.0,25.0,,0 days 00:00:00
2023-11-09 13:09:44.429,1.113925,0.8301284,0.5271322,0.92252874,0.80515224,0.11575708,0.25704768,0.761335,1.2546601,0.4092578,0.1696247,1.2349244,0.7792313,0.17001389,0.023278465,0.8913075,0.49437004,-0.1875175,0.15482053,0.7042281,859.45056,778.86444,797.3993,844.5421,782.49084,23.999996,0.0,0.402587890625,0.0721435546875,0.915283203125,2.669219970703125,-3.790740966796875,0.605621337890625,1130622.7106227106,101230622.71062271,34453772.89377289,79.86944,1.0,1.0,1.0,1.0,1.0,25.0,,0 days 00:00:00
2023-11-09 13:09:44.495,1.113925,0.8301284,0.5271322,0.92252874,0.80515224,0.11575708,0.25704768,0.761335,1.2546601,0.4092578,0.1696247,1.2349244,0.7792313,0.17001389,0.023278465,0.8913075,0.49437004,-0.1875175,0.15482053,0.7042281,840.10986,774.0293,796.99634,838.49817,858.24176,23.999996,0.0,0.3975830078125,0.0706787109375,0.9107666015625,2.64678955078125,-5.046844482421875,-0.171966552734375,1153992.673992674,101107326.007326,34420732.6007326,79.86944,1.0,1.0,1.0,1.0,1.0,25.0,,0 days 00:00:00.066000
2023-11-09 13:09:44.496,1.113925,0.8301284,0.5271322,0.92252874,0.80515224,0.11575708,0.25704768,0.761335,1.2546601,0.4092578,0.1696247,1.2349244,0.7792313,0.17001389,0.023278465,0.8913075,0.49437004,-0.1875175,0.15482053,0.7042281,828.022,770.40295,798.60803,822.381,743.00366,23.999996,0.0,0.3975830078125,0.0706787109375,0.9107666015625,2.64678955078125,-5.046844482421875,-0.171966552734375,1153992.673992674,101107326.007326,34420732.6007326,79.86944,1.0,1.0,1.0,1.0,1.0,25.0,,0 days 00:00:00.001000
2023-11-09 13:09:44.497,1.113925,0.8301284,0.5271322,0.92252874,0.80515224,0.11575708,0.25704768,0.761335,1.2546601,0.4092578,0.1696247,1.2349244,0.7792313,0.17001389,0.023278465,0.8913075,0.49437004,-0.1875175,0.15482053,0.7042281,842.1245,771.6117,804.2491,834.0659,697.0696,23.999996,0.0,0.3975830078125,0.0706787109375,0.9107666015625,2.64678955078125,-5.046844482421875,-0.171966552734375,1153992.673992674,101107326.007326,34420732.6007326,79.86944,1.0,1.0,1.0,1.0,1.0,25.0,,0 days 00:00:00.001000
2023-11-09 13:09:44.497,1.113925,0.8301284,0.5271322,0.92252874,0.80515224,0.11575708,0.25704768,0.761335,1.2546601,0.4092578,0.1696247,1.2349244,0.7792313,0.17001389,0.023278465,0.8913075,0.49437004,-0.1875175,0.15482053,0.7042281,848.5714,765.56775,801.8315,840.5128,764.35895,23.999996,0.0,0.3975830078125,0.0706787109375,0.9107666015625,2.64678955078125,-5.046844482421875,-0.171966552734375,1153992.673992674,101107326.007326,34420732.6007326,79.86944,1.0,1.0,1.0,1.0,1.0,25.0,,0 days 00:00:00
2023-11-09 13:09:44.498,1.113925,0.8301284,0.5271322,0.92252874,0.80515224,0.11575708,0.25704768,0.761335,1.2546601,0.4092578,0.1696247,1.2349244,0.7792313,0.17001389,0.023278465,0.8913075,0.49437004,-0.1875175,0.15482053,0.7042281,851.79486,766.3736,791.75824,844.1392,796.1905,23.999996,0.0,0.3975830078125,0.0706787109375,0.9107666015625,2.64678955078125,-5.046844482421875,-0.171966552734375,1153992.673992674,101107326.007326,34420732.6007326,79.86944,1.0,1.0,1.0,1.0,1.0,25.0,,0 days 00:00:00.001000
2023-11-09 13:09:44.498,1.113925,0.80296886,0.5271322,0.94549507,0.80515224,0.1108087,0.25704768,0.78795505,1.2546601,0.46489862,0.1696247,1.2349244,0.7792313,0.17760411,0.023278465,0.8985666,0.49437004,-0.18522422,0.15482053,0.7011018,862.27106,769.59705,786.9231,857.8388,804.65204,25.999996,0.0,0.3975830078125,0.0706787109375,0.9107666015625,2.64678955078125,-5.046844482421875,-0.171966552734375,1153992.673992674,101107326.007326,34420732.6007326,79.86944,1.0,1.0,1.0,1.0,1.0,25.0,,0 days 00:00:00
2023-11-09 13:09:44.501,1.113925,0.80296886,0.5271322,0.94549507,0.80515224,0.1108087,0.25704768,0.78795505,1.2546601,0.46489862,0.1696247,1.2349244,0.7792313,0.17760411,0.023278465,0.8985666,0.49437004,-0.18522422,0.15482053,0.7011018,854.61536,761.13556,788.1319,855.42126,751.8681,25.999996,0.0,0.3975830078125,0.0706787109375,0.9107666015625,2.64678955078125,-5.046844482421875,-0.171966552734375,1153992.673992674,101107326.007326,34420732.6007326,79.86944,1.0,1.0,1.0,1.0,1.0,25.0,,0 days 00:00:00.003000
2023-11-09 13:09:44.501,1.113925,0.80296886,0.5271322,0.94549507,0.80515224,0.1108087,0.25704768,0.78795505,1.2546601,0.46489862,0.1696247,1.2349244,0.7792313,0.17760411,0.023278465,0.8985666,0.49437004,-0.18522422,0.15482053,0.7011018,854.21246,767.5824,796.99634,868.71796,807.0696,25.999996,0.0,0.3975830078125,0.0706787109375,0.9107666015625,2.64678955078125,-5.046844482421875,-0.171966552734375,1153992.673992674,101107326.007326,34420732.6007326,79.86944,1.0,1.0,1.0,1.0,1.0,25.0,,0 days 00:00:00
2023-11-09 13:09:44.502,1.113925,0.80296886,0.5271322,0.94549507,0.80515224,0.1108087,0.25704768,0.78795505,1.2546601,0.46489862,0.1696247,1.2349244,0.7792313,0.17760411,0.023278465,0.8985666,0.49437004,-0.18522422,0.15482053,0.7011018,855.0183,775.64105,788.93774,879.19415,996.04395,25.999996,0.0,0.3975830078125,0.0706787109375,0.9107666015625,2.64678955078125,-5.046844482421875,-0.171966552734375,1153992.673992674,101107326.007326,34420732.6007326,79.86944,1.0,1.0,1.0,1.0,1.0,25.0,,0 days 00:00:00.001000
2023-11-09 13:09:44.502,1.113925,0.80296886,0.5271322,0.94549507,0.80515224,0.1108087,0.25704768,0.78795505,1.2546601,0.46489862,0.1696247,1.2349244,0.7792313,0.17760411,0.023278465,0.8985666,0.49437004,-0.18522422,0.15482053,0.7011018,849.7802,782.49084,782.49084,832.8571,870.32965,25.999996,0.0,0.3975830078125,0.0706787109375,0.9107666015625,2.64678955078125,-5.046844482421875,-0.171966552734375,1153992.673992674,101107326.007326,34420732.6007326,79.86944,1.0,1.0,1.0,1.0,1.0,25.0,,0 days 00:00:00
2023-11-09 13:09:44.503,1.113925,0.80296886,0.5271322,0.94549507,0.80515224,0.1108087,0.25704768,0.78795505,1.2546601,0.46489862,0.1696247,1.2349244,0.7792313,0.17760411,0.023278465,0.8985666,0.49437004,-0.18522422,0.15482053,0.7011018,847.3626,784.90845,794.17584,804.2491,773.6264,25.999996,0.0,0.3975830078125,0.0706787109375,0.9107666015625,2.64678955078125,-5.046844482421875,-0.171966552734375,1153992.673992674,101107326.007326,34420732.6007326,79.86944,1.0,1.0,1.0,1.0,1.0,25.0,,0 days 00:00:00.001000
2023-11-09 13:09:44.503,1.113925,0.80296886,0.5271322,0.94549507,0.80515224,0.1108087,0.25704768,0.78795505,1.2546601,0.46489862,0.1696247,1.2349244,0.7792313,0.17760411,0.023278465,0.8985666,0.49437004,-0.18522422,0.15482053,0.7011018,860.65936,785.31134,804.2491,840.9158,998.0586,25.999996,0.0,0.3975830078125,0.0706787109375,0.9107666015625,2.64678955078125,-5.046844482421875,-0.171966552734375,1153992.673992674,101107326.007326,34420732.6007326,79.86944,1.0,1.0,1.0,1.0,1.0,25.0,,0 days 00:00:00
2023-11-09 13:09:44.528,1.113925,0.80296886,0.5271322,0.94549507,0.80515224,0.1108087,0.25704768,0.78795505,1.2546601,0.46489862,0.1696247,1.2349244,0.7792313,0.17760411,0.023278465,0.8985666,0.49437004,-0.18522422,0.15482053,0.7011018,867.9121,793.7729,805.8608,850.58606,1007.72894,25.999996,0.0,0.39892578125,0.0714111328125,0.91656494140625,3.267364501953125,-6.063690185546875,-0.478515625,1153992.673992674,101107326.007326,34420732.6007326,79.86944,1.0,1.0,1.0,1.0,1.0,25.0,,0 days 00:00:00.025000
2023-11-09 13:09:44.528,1.113925,0.80296886,0.5271322,0.94549507,0.80515224,0.1108087,0.25704768,0.78795505,1.2546601,0.46489862,0.1696247,1.2349244,0.7792313,0.17760411,0.023278465,0.8985666,0.49437004,-0.18522422,0.15482053,0.7011018,849.3773,797.8022,804.2491,825.6044,771.6117,25.999996,0.0,0.39892578125,0.0714111328125,0.91656494140625,3.267364501953125,-6.063690185546875,-0.478515625,1153992.673992674,101107326.007326,34420732.6007326,79.86944,1.0,1.0,1.0,1.0,1.0,25.0,,0 days 00:00:00
2023-11-09 13:09:44.529,1.113925,0.80296886,0.5271322,0.94549507,0.80515224,0.1108087,0.25704768,0.78795505,1.2546601,0.46489862,0.1696247,1.2349244,0.7792313,0.17760411,0.023278465,0.8985666,0.49437004,-0.18522422,0.15482053,0.7011018,844.5421,796.5934,813.91943,840.10986,751.8681,25.999996,0.0,0.39892578125,0.0714111328125,0.91656494140625,3.267364501953125,-6.063690185546875,-0.478515625,1153992.673992674,101107326.007326,34420732.6007326,79.86944,1.0,1.0,1.0,1.0,1.0,25.0,,0 days 00:00:00.001000
2023-11-09 13:09:44.529,1.113925,0.80296886,0.5271322,0.94549507,0.80515224,0.1108087,0.25704768,0.78795505,1.2546601,0.46489862,0.1696247,1.2349244,0.7792313,0.17760411,0.023278465,0.8985666,0.49437004,-0.18522422,0.15482053,0.7011018,855.42126,800.6227,831.6484,881.2088,897.72894,25.999996,0.0,0.39892578125,0.0714111328125,0.91656494140625,3.267364501953125,-6.063690185546875,-0.478515625,1153992.673992674,101107326.007326,34420732.6007326,79.86944,1.0,1.0,1.0,1.0,1.0,25.0,,0 days 00:00:00
2023-11-09 13:09:44.530,1.113925,0.80296886,0.5271322,0.94549507,0.80515224,0.1108087,0.25704768,0.78795505,1.2546601,0.46489862,0.1696247,1.2349244,0.7792313,0.17760411,0.023278465,0.8985666,0.49437004,-0.18522422,0.15482053,0.7011018,852.6007,801.02563,833.2601,865.09155,866.7033,25.999996,0.0,0.39892578125,0.0714111328125,0.91656494140625,3.267364501953125,-6.063690185546875,-0.478515625,1153992.673992674,101107326.007326,34420732.6007326,79.86944,1.0,1.0,1.0,1.0,1.0,25.0,,0 days 00:00:00.001000
2023-11-09 13:09:44.530,1.113925,0.80296886,0.5271322,0.94549507,0.80515224,0.1108087,0.25704768,0.78795505,1.2546601,0.46489862,0.1696247,1.2349244,0.7792313,0.17760411,0.023278465,0.8985666,0.49437004,-0.18522422,0.15482053,0.7011018,850.18317,807.47253,828.022,839.304,777.25275,25.999996,0.0,0.39892578125,0.0714111328125,0.91656494140625,3.267364501953125,-6.063690185546875,-0.478515625,1153992.673992674,101107326.007326,34420732.6007326,79.86944,1.0,1.0,1.0,1.0,1.0,25.0,,0 days 00:00:00
2023-11-09 13:09:44.531,1.113925,0.80296886,0.5271322,0.94549507,0.80515224,0.1108087,0.25704768,0.78795505,1.2546601,0.46489862,0.1696247,1.2349244,0.7792313,0.17760411,0.023278465,0.8985666,0.49437004,-0.18522422,0.15482053,0.7011018,855.42126,805.8608,836.4835,853.00366,884.0293,25.999996,0.0,0.39892578125,0.0714111328125,0.91656494140625,3.267364501953125,-6.063690185546875,-0.478515625,1153992.673992674,101107326.007326,34420732.6007326,79.86944,1.0,1.0,1.0,1.0,1.0,25.0,,0 days 00:00:00.001000
2023-11-09 13:09:44.531,1.113925,0.80296886,0.5271322,0.94549507,0.80515224,0.1108087,0.25704768,0.78795505,1.2546601,0.46489862,0.1696247,1.2349244,0.7792313,0.17760411,0.023278465,0.8985666,0.49437004,-0.18522422,0.15482053,0.7011018,860.2564,790.54944,821.978,857.8388,1068.1685,25.999996,0.0,0.39892578125,0.0714111328125,0.91656494140625,3.267364501953125,-6.063690185546875,-0.478515625,1153992.673992674,101107326.007326,34420732.6007326,79.86944,1.0,1.0,1.0,1.0,1.0,25.0,,0 days 00:00:00
2023-11-09 13:09:44.531,1.113925,0.80296886,0.5271322,0.94549507,0.80515224,0.1108087,0.25704768,0.78795505,1.2546601,0.46489862,0.1696247,1.2349244,0.7792313,0.17760411,0.023278465,0.8985666,0.49437004,-0.18522422,0.15482053,0.7011018,856.2271,812.3077,821.5751,853.00366,877.98535,25.999996,0.0,0.39892578125,0.0714111328125,0.91656494140625,3.267364501953125,-6.063690185546875,-0.478515625,1153992.673992674,101107326.007326,34420732.6007326,79.86944,1.0,1.0,1.0,1.0,1.0,25.0,,0 days 00:00:00
2023-11-09 13:09:44.532,1.113925,0.80296886,0.5271322,0.94549507,0.80515224,0.1108087,0.25704768,0.78795505,1.2546601,0.46489862,0.1696247,1.2349244,0.7792313,0.17760411,0.023278465,0.8985666,0.49437004,-0.18522422,0.15482053,0.7011018,861.8681,832.0513,861.4652,854.61536,708.7546,25.999996,0.0,0.39892578125,0.0714111328125,0.91656494140625,3.267364501953125,-6.063690185546875,-0.478515625,1153992.673992674,101107326.007326,34420732.6007326,79.86944,1.0,1.0,1.0,1.0,1.0,25.0,,0 days 00:00:00.001000
2023-11-09 13:09:44.532,1.113925,0.80296886,0.5271322,0.94549507,0.80515224,0.1108087,0.25704768,0.78795505,1.2546601,0.46489862,0.1696247,1.2349244,0.7792313,0.17760411,0.023278465,0.8985666,0.49437004,-0.18522422,0.15482053,0.7011018,853.00366,802.6374,847.3626,838.0952,809.4872,25.999996,0.0,0.39892578125,0.0714111328125,0.91656494140625,3.267364501953125,-6.063690185546875,-0.478515625,1153992.673992674,101107326.007326,34420732.6007326,79.86944,1.0,1.0,1.0,1.0,1.0,25.0,,0 days 00:00:00
2023-11-09 13:09:44.533,1.113925,0.80296886,0.5271322,0.94549507,0.80515224,0.1108087,0.25704768,0.78795505,1.2546601,0.46489862,0.1696247,1.2349244,0.7792313,0.17760411,0.023278465,0.8985666,0.49437004,-0.18522422,0.15482053,0.7011018,835.6777,789.7436,804.2491,824.3956,785.7143,25.999996,0.0,0.39892578125,0.0714111328125,0.91656494140625,3.267364501953125,-6.063690185546875,-0.478515625,1153992.673992674,101107326.007326,34420732.6007326,79.86944,1.0,1.0,1.0,1.0,1.0,25.0,,0 days 00:00:00.001000
2023-11-09 13:09:44.565,1.113925,0.80296886,0.5271322,0.94549507,0.80515224,0.1108087,0.25704768,0.78795505,1.2546601,0.46489862,0.1696247,1.2349244,0.7792313,0.17760411,0.023278465,0.8985666,0.49437004,-0.18522422,0.15482053,0.7011018,839.304,789.7436,800.2198,838.9011,747.4359,25.999996,0.0,0.39892578125,0.0714111328125,0.91656494140625,3.267364501953125,-6.063690185546875,-0.478515625,1192673.9926739926,101167765.56776556,34427179.48717949,79.86944,1.0,1.0,1.0,1.0,1.0,25.0,,0 days 00:00:00.032000
2023-11-09 13:09:44.566,1.113925,0.80296886,0.5271322,0.94549507,0.80515224,0.1108087,0.25704768,0.78795505,1.2546601,0.46489862,0.1696247,1.2349244,0.7792313,0.17760411,0.023278465,0.8985666,0.49437004,-0.18522422,0.15482053,0.7011018,840.5128,790.9524,816.7399,843.73627,747.4359,25.999996,0.0,0.39892578125,0.0714111328125,0.91656494140625,3.267364501953125,-6.063690185546875,-0.478515625,1192673.9926739926,101167765.56776556,34427179.48717949,79.86944,1.0,1.0,1.0,1.0,1.0,25.0,,0 days 00:00:00.001000
2023-11-09 13:09:44.566,1.113925,0.80296886,0.5271322,0.94549507,0.80515224,0.1108087,0.25704768,0.78795505,1.2546601,0.46489862,0.1696247,1.2349244,0.7792313,0.17760411,0.023278465,0.8985666,0.49437004,-0.18522422,0.15482053,0.7011018,828.4249,795.38464,830.4396,820.7692,771.2088,25.999996,0.0,0.39892578125,0.0714111328125,0.91656494140625,3.267364501953125,-6.063690185546875,-0.478515625,1192673.9926739926,101167765.56776556,34427179.48717949,79.86944,1.0,1.0,1.0,1.0,1.0,25.0,,0 days 00:00:00
2023-11-09 13:09:44.567,1.113925,0.80296886,0.5271322,0.94549507,0.80515224,0.1108087,0.25704768,0.78795505,1.2546601,0.46489862,0.1696247,1.2349244,0.7792313,0.17760411,0.023278465,0.8985666,0.49437004,-0.18522422,0.15482053,0.7011018,830.4396,799.011,830.4396,813.91943,834.87177,25.999996,0.0,0.39892578125,0.0714111328125,0.91656494140625,3.267364501953125,-6.063690185546875,-0.478515625,1192673.9926739926,101167765.56776556,34427179.48717949,79.86944,1.0,1.0,1.0,1.0,1.0,25.0,,0 days 00:00:00.001000
2023-11-09 13:09:44.567,1.113925,0.80296886,0.5271322,0.94549507,0.80515224,0.1108087,0.25704768,0.78795505,1.2546601,0.46489862,0.1696247,1.2349244,0.7792313,0.17760411,0.023278465,0.8985666,0.49437004,-0.18522422,0.15482053,0.7011018,839.707,795.78754,829.2308,820.7692,777.6557,25.999996,0.0,0.39892578125,0.0714111328125,0.91656494140625,3.267364501953125,-6.063690185546875,-0.478515625,1192673.9926739926,101167765.56776556,34427179.48717949,79.86944,1.0,1.0,1.0,1.0,1.0,25.0,,0 days 00:00:00
2023-11-09 13:09:44.567,1.113925,0.80296886,0.5271322,0.94549507,0.80515224,0.1108087,0.25704768,0.78795505,1.2546601,0.46489862,0.1696247,1.2349244,0.7792313,0.17760411,0.023278465,0.8985666,0.49437004,-0.18522422,0.15482053,0.7011018,851.39197,792.96704,837.6923,820.3663,764.7619,25.999996,0.0,0.39892578125,0.0714111328125,0.91656494140625,3.267364501953125,-6.063690185546875,-0.478515625,1192673.9926739926,101167765.56776556,34427179.48717949,79.86944,1.0,1.0,1.0,1.0,1.0,25.0,,0 days 00:00:00
2023-11-09 13:09:44.568,1.113925,0.80296886,0.5271322,0.94549507,0.80515224,0.1108087,0.25704768,0.78795505,1.2546601,0.46489862,0.1696247,1.2349244,0.7792313,0.17760411,0.023278465,0.8985666,0.49437004,-0.18522422,0.15482053,0.7011018,855.82416,794.17584,851.39197,827.619,894.5055,25.999996,0.0,0.39892578125,0.0714111328125,0.91656494140625,3.267364501953125,-6.063690185546875,-0.478515625,1192673.9926739926,101167765.56776556,34427179.48717949,79.86944,1.0,1.0,1.0,1.0,1.0,25.0,,0 days 00:00:00.001000
2023-11-09 13:09:44.569,1.113925,0.80296886,0.5271322,0.94549507,0.80515224,0.1108087,0.25704768,0.78795505,1.2546601,0.46489862,0.1696247,1.2349244,0.7792313,0.17760411,0.023278465,0.8985666,0.49437004,-0.18522422,0.15482053,0.7011018,855.82416,794.17584,851.39197,827.619,894.5055,25.999996,0.0,0.39892578125,0.0714111328125,0.91656494140625,3.267364501953125,-6.063690185546875,-0.478515625,1192673.9926739926,101167765.56776556,34427179.48717949,79.86944,1.0,1.0,1.0,1.0,1.0,25.0,/muse/elements/blink,0 days 00:00:00.001000
2023-11-09 13:09:44.568,1.113925,0.7720287,0.5271322,0.9699433,0.80515224,0.13703477,0.25704768,0.8147119,1.2546601,0.49439892,0.1696247,1.2349244,0.7792313,0.18564253,0.023278465,0.9008692,0.49437004,-0.18443671,0.15482053,0.6942057,848.5714,790.54944,871.9414,846.55676,1052.4542,27.999996,0.0,0.39892578125,0.0714111328125,0.91656494140625,3.267364501953125,-6.063690185546875,-0.478515625,1192673.9926739926,101167765.56776556,34427179.48717949,79.86944,1.0,1.0,1.0,1.0,1.0,25.0,/muse/elements/blink,-1 days +23:59:59.999000
2023-11-09 13:09:44.570,1.113925,0.7720287,0.5271322,0.9699433,0.80515224,0.13703477,0.25704768,0.8147119,1.2546601,0.49439892,0.1696247,1.2349244,0.7792313,0.18564253,0.023278465,0.9008692,0.49437004,-0.18443671,0.15482053,0.6942057,804.2491,794.57874,874.7619,817.5458,855.42126,27.999996,0.0,0.39892578125,0.0714111328125,0.91656494140625,3.267364501953125,-6.063690185546875,-0.478515625,1192673.9926739926,101167765.56776556,34427179.48717949,79.86944,1.0,1.0,1.0,1.0,1.0,25.0,/muse/elements/blink,0 days 00:00:00.002000
2023-11-09 13:09:44.571,1.113925,0.7720287,0.5271322,0.9699433,0.80515224,0.13703477,0.25704768,0.8147119,1.2546601,0.49439892,0.1696247,1.2349244,0.7792313,0.18564253,0.023278465,0.9008692,0.49437004,-0.18443671,0.15482053,0.6942057,799.41394,798.60803,861.8681,805.8608,657.5824,27.999996,0.0,0.39892578125,0.0714111328125,0.91656494140625,3.267364501953125,-6.063690185546875,-0.478515625,1192673.9926739926,101167765.56776556,34427179.48717949,79.86944,1.0,1.0,1.0,1.0,1.0,25.0,/muse/elements/blink,0 days 00:00:00.001000
2023-11-09 13:09:44.571,1.113925,0.7720287,0.5271322,0.9699433,0.80515224,0.13703477,0.25704768,0.8147119,1.2546601,0.49439892,0.1696247,1.2349244,0.7792313,0.18564253,0.023278465,0.9008692,0.49437004,-0.18443671,0.15482053,0.6942057,818.3516,797.3993,856.63007,820.3663,767.98535,27.999996,0.0,0.39892578125,0.0714111328125,0.91656494140625,3.267364501953125,-6.063690185546875,-0.478515625,1192673.9926739926,101167765.56776556,34427179.48717949,79.86944,1.0,1.0,1.0,1.0,1.0,25.0,/muse/elements/blink,0 days 00:00:00
2023-11-09 13:09:44.571,1.113925,0.7720287,0.5271322,0.9699433,0.80515224,0.13703477,0.25704768,0.8147119,1.2546601,0.49439892,0.1696247,1.2349244,0.7792313,0.18564253,0.023278465,0.9008692,0.49437004,-0.18443671,0.15482053,0.6942057,813.5165,795.78754,865.89746,803.8461,830.4396,27.999996,0.0,0.39892578125,0.0714111328125,0.91656494140625,3.267364501953125,-6.063690185546875,-0.478515625,1192673.9926739926,101167765.56776556,34427179.48717949,79.86944,1.0,1.0,1.0,1.0,1.0,25.0,/muse/elements/blink,0 days 00:00:00
2023-11-09 13:09:44.628,1.113925,0.7720287,0.5271322,0.9699433,0.80515224,0.13703477,0.25704768,0.8147119,1.2546601,0.49439892,0.1696247,1.2349244,0.7792313,0.18564253,0.023278465,0.9008692,0.49437004,-0.18443671,0.15482053,0.6942057,803.0403,796.99634,869.92676,801.8315,760.32965,27.999996,0.0,0.396728515625,0.0716552734375,0.9173583984375,2.7813720703125,-4.91973876953125,0.19439697265625,1192673.9926739926,101167765.56776556,34427179.48717949,79.86944,1.0,1.0,1.0,1.0,1.0,25.0,/muse/elements/blink,0 days 00:00:00.057000
2023-11-09 13:09:44.629,1.113925,0.7720287,0.5271322,0.9699433,0.80515224,0.13703477,0.25704768,0.8147119,1.2546601,0.49439892,0.1696247,1.2349244,0.7792313,0.18564253,0.023278465,0.9008692,0.49437004,-0.18443671,0.15482053,0.6942057,797.8022,794.9817,869.12085,815.5311,715.2015,27.999996,0.0,0.396728515625,0.0716552734375,0.9173583984375,2.7813720703125,-4.91973876953125,0.19439697265625,1192673.9926739926,101167765.56776556,34427179.48717949,79.86944,1.0,1.0,1.0,1.0,1.0,25.0,/muse/elements/blink,0 days 00:00:00.001000
2023-11-09 13:09:44.630,1.113925,0.7720287,0.5271322,0.9699433,0.80515224,0.13703477,0.25704768,0.8147119,1.2546601,0.49439892,0.1696247,1.2349244,0.7792313,0.18564253,0.023278465,0.9008692,0.49437004,-0.18443671,0.15482053,0.6942057,803.8461,789.34064,877.5824,815.5311,865.09155,27.999996,0.0,0.396728515625,0.0716552734375,0.9173583984375,2.7813720703125,-4.91973876953125,0.19439697265625,1192673.9926739926,101167765.56776556,34427179.48717949,79.86944,1.0,1.0,1.0,1.0,1.0,25.0,/muse/elements/blink,0 days 00:00:00.001000
2023-11-09 13:09:44.630,1.113925,0.7720287,0.5271322,0.9699433,0.80515224,0.13703477,0.25704768,0.8147119,1.2546601,0.49439892,0.1696247,1.2349244,0.7792313,0.18564253,0.023278465,0.9008692,0.49437004,-0.18443671,0.15482053,0.6942057,797.3993,798.60803,875.9707,806.6667,848.97437,27.999996,0.0,0.396728515625,0.0716552734375,0.9173583984375,2.7813720703125,-4.91973876953125,0.19439697265625,1192673.9926739926,101167765.56776556,34427179.48717949,79.86944,1.0,1.0,1.0,1.0,1.0,25.0,/muse/elements/blink,0 days 00:00:00
2023-11-09 13:09:44.631,1.113925,0.7720287,0.5271322,0.9699433,0.80515224,0.13703477,0.25704768,0.8147119,1.2546601,0.49439892,0.1696247,1.2349244,0.7792313,0.18564253,0.023278465,0.9008692,0.49437004,-0.18443671,0.15482053,0.6942057,794.57874,801.02563,874.35895,797.8022,795.78754,27.999996,0.0,0.396728515625,0.0716552734375,0.9173583984375,2.7813720703125,-4.91973876953125,0.19439697265625,1192673.9926739926,101167765.56776556,34427179.48717949,79.86944,1.0,1.0,1.0,1.0,1.0,25.0,/muse/elements/blink,0 days 00:00:00.001000
2023-11-09 13:09:44.631,1.113925,0.7720287,0.5271322,0.9699433,0.80515224,0.13703477,0.25704768,0.8147119,1.2546601,0.49439892,0.1696247,1.2349244,0.7792313,0.18564253,0.023278465,0.9008692,0.49437004,-0.18443671,0.15482053,0.6942057,796.1905,792.1612,882.01465,798.60803,877.5824,27.999996,0.0,0.396728515625,0.0716552734375,0.9173583984375,2.7813720703125,-4.91973876953125,0.19439697265625,1192673.9926739926,101167765.56776556,34427179.48717949,79.86944,1.0,1.0,1.0,1.0,1.0,25.0,/muse/elements/blink,0 days 00:00:00
2023-11-09 13:09:44.631,1.113925,0.7720287,0.5271322,0.9699433,0.80515224,0.13703477,0.25704768,0.8147119,1.2546601,0.49439892,0.1696247,1.2349244,0.7792313,0.18564253,0.023278465,0.9008692,0.49437004,-0.18443671,0.15482053,0.6942057,799.011,789.7436,889.67035,808.2784,1073.8096,27.999996,0.0,0.396728515625,0.0716552734375,0.9173583984375,2.7813720703125,-4.91973876953125,0.19439697265625,1192673.9926739926,101167765.56776556,34427179.48717949,79.86944,1.0,1.0,1.0,1.0,1.0,25.0,/muse/elements/blink,0 days 00:00:00
2023-11-09 13:09:44.632,1.113925,0.7720287,0.5271322,0.9699433,0.80515224,0.13703477,0.25704768,0.8147119,1.2546601,0.49439892,0.1696247,1.2349244,0.7792313,0.18564253,0.023278465,0.9008692,0.49437004,-0.18443671,0.15482053,0.6942057,775.64105,792.1612,880.80585,801.02563,996.04395,27.999996,0.0,0.396728515625,0.0716552734375,0.9173583984375,2.7813720703125,-4.91973876953125,0.19439697265625,1192673.9926739926,101167765.56776556,34427179.48717949,79.86944,1.0,1.0,1.0,1.0,1.0,25.0,/muse/elements/blink,0 days 00:00:00.001000
2023-11-09 13:09:44.632,1.113925,0.7720287,0.5271322,0.9699433,0.80515224,0.13703477,0.25704768,0.8147119,1.2546601,0.49439892,0.1696247,1.2349244,0.7792313,0.18564253,0.023278465,0.9008692,0.49437004,-0.18443671,0.15482053,0.6942057,765.56775,794.17584,862.674,780.87915,719.6337,27.999996,0.0,0.396728515625,0.0716552734375,0.9173583984375,2.7813720703125,-4.91973876953125,0.19439697265625,1192673.9926739926,101167765.56776556,34427179.48717949,79.86944,1.0,1.0,1.0,1.0,1.0,25.0,/muse/elements/blink,0 days 00:00:00
2023-11-09 13:09:44.633,1.113925,0.7720287,0.5271322,0.9699433,0.80515224,0.13703477,0.25704768,0.8147119,1.2546601,0.49439892,0.1696247,1.2349244,0.7792313,0.18564253,0.023278465,0.9008692,0.49437004,-0.18443671,0.15482053,0.6942057,779.67035,786.9231,869.5238,790.9524,757.9121,27.999996,0.0,0.396728515625,0.0716552734375,0.9173583984375,2.7813720703125,-4.91973876953125,0.19439697265625,1192673.9926739926,101167765.56776556,34427179.48717949,79.86944,1.0,1.0,1.0,1.0,1.0,25.0,/muse/elements/blink,0 days 00:00:00.001000
2023-11-09 13:09:44.633,1.113925,0.7720287,0.5271322,0.9699433,0.80515224,0.13703477,0.25704768,0.8147119,1.2546601,0.49439892,0.1696247,1.2349244,0.7792313,0.18564253,0.023278465,0.9008692,0.49437004,-0.18443671,0.15482053,0.6942057,776.8498,784.5055,884.43225,803.8461,864.2857,27.999996,0.0,0.396728515625,0.0716552734375,0.9173583984375,2.7813720703125,-4.91973876953125,0.19439697265625,1192673.9926739926,101167765.56776556,34427179.48717949,79.86944,1.0,1.0,1.0,1.0,1.0,25.0,/muse/elements/blink,0 days 00:00:00
2023-11-09 13:09:44.633,1.113925,0.7720287,0.5271322,0.9699433,0.80515224,0.13703477,0.25704768,0.8147119,1.2546601,0.49439892,0.1696247,1.2349244,0.7792313,0.18564253,0.023278465,0.9008692,0.49437004,-0.18443671,0.15482053,0.6942057,768.3883,784.5055,881.6117,767.98535,846.1539,27.999996,0.0,0.396728515625,0.0716552734375,0.9173583984375,2.7813720703125,-4.91973876953125,0.19439697265625,1192673.9926739926,101167765.56776556,34427179.48717949,79.86944,1.0,1.0,1.0,1.0,1.0,25.0,/muse/elements/blink,0 days 00:00:00
2023-11-09 13:09:44.662,1.113925,0.7720287,0.5271322,0.9699433,0.80515224,0.13703477,0.25704768,0.8147119,1.2546601,0.49439892,0.1696247,1.2349244,0.7792313,0.18564253,0.023278465,0.9008692,0.49437004,-0.18443671,0.15482053,0.6942057,765.16486,775.2381,877.1795,745.0183,793.36993,27.999996,0.0,0.39666748046875,0.07293701171875,0.91754150390625,3.521575927734375,-5.271148681640625,-0.40374755859375,1208791.2087912087,101257216.11721613,34470695.97069597,79.86944,1.0,1.0,1.0,1.0,1.0,25.0,/muse/elements/blink,0 days 00:00:00.029000
2023-11-09 13:09:44.663,1.113925,0.7720287,0.5271322,0.9699433,0.80515224,0.13703477,0.25704768,0.8147119,1.2546601,0.49439892,0.1696247,1.2349244,0.7792313,0.18564253,0.023278465,0.9008692,0.49437004,-0.18443671,0.15482053,0.6942057,764.7619,769.19415,880.40295,767.1795,737.76556,27.999996,0.0,0.39666748046875,0.07293701171875,0.91754150390625,3.521575927734375,-5.271148681640625,-0.40374755859375,1208791.2087912087,101257216.11721613,34470695.97069597,79.86944,1.0,1.0,1.0,1.0,1.0,25.0,/muse/elements/blink,0 days 00:00:00.001000
2023-11-09 13:09:44.663,1.113925,0.7720287,0.5271322,0.9699433,0.80515224,0.13703477,0.25704768,0.8147119,1.2546601,0.49439892,0.1696247,1.2349244,0.7792313,0.18564253,0.023278465,0.9008692,0.49437004,-0.18443671,0.15482053,0.6942057,773.6264,770.80585,879.19415,774.0293,772.4176,27.999996,0.0,0.39666748046875,0.07293701171875,0.91754150390625,3.521575927734375,-5.271148681640625,-0.40374755859375,1208791.2087912087,101257216.11721613,34470695.97069597,79.86944,1.0,1.0,1.0,1.0,1.0,25.0,/muse/elements/blink,0 days 00:00:00
2023-11-09 13:09:44.664,1.113925,0.7720287,0.5271322,0.9699433,0.80515224,0.13703477,0.25704768,0.8147119,1.2546601,0.49439892,0.1696247,1.2349244,0.7792313,0.18564253,0.023278465,0.9008692,0.49437004,-0.18443671,0.15482053,0.6942057,771.6117,766.77655,872.74725,766.3736,794.17584,27.999996,0.0,0.39666748046875,0.07293701171875,0.91754150390625,3.521575927734375,-5.271148681640625,-0.40374755859375,1208791.2087912087,101257216.11721613,34470695.97069597,79.86944,1.0,1.0,1.0,1.0,1.0,25.0,/muse/elements/blink,0 days 00:00:00.001000
2023-11-09 13:09:44.664,1.113925,0.7720287,0.5271322,0.9699433,0.80515224,0.13703477,0.25704768,0.8147119,1.2546601,0.49439892,0.1696247,1.2349244,0.7792313,0.18564253,0.023278465,0.9008692,0.49437004,-0.18443671,0.15482053,0.6942057,777.25275,768.7912,873.5531,772.8205,740.989,27.999996,0.0,0.39666748046875,0.07293701171875,0.91754150390625,3.521575927734375,-5.271148681640625,-0.40374755859375,1208791.2087912087,101257216.11721613,34470695.97069597,79.86944,1.0,1.0,1.0,1.0,1.0,25.0,/muse/elements/blink,0 days 00:00:00
2023-11-09 13:09:44.665,1.113925,0.7720287,0.5271322,0.9699433,0.80515224,0.13703477,0.25704768,0.8147119,1.2546601,0.49439892,0.1696247,1.2349244,0.7792313,0.18564253,0.023278465,0.9008692,0.49437004,-0.18443671,0.15482053,0.6942057,771.6117,766.77655,880.80585,766.77655,859.45056,27.999996,0.0,0.39666748046875,0.07293701171875,0.91754150390625,3.521575927734375,-5.271148681640625,-0.40374755859375,1208791.2087912087,101257216.11721613,34470695.97069597,79.86944,1.0,1.0,1.0,1.0,1.0,25.0,/muse/elements/blink,0 days 00:00:00.001000
2023-11-09 13:09:44.665,1.113925,0.7720287,0.5271322,0.9699433,0.80515224,0.13703477,0.25704768,0.8147119,1.2546601,0.49439892,0.1696247,1.2349244,0.7792313,0.18564253,0.023278465,0.9008692,0.49437004,-0.18443671,0.15482053,0.6942057,749.45056,764.35895,882.8205,764.35895,969.85345,27.999996,0.0,0.39666748046875,0.07293701171875,0.91754150390625,3.521575927734375,-5.271148681640625,-0.40374755859375,1208791.2087912087,101257216.11721613,34470695.97069597,79.86944,1.0,1.0,1.0,1.0,1.0,25.0,/muse/elements/blink,0 days 00:00:00
2023-11-09 13:09:44.665,1.113925,0.7720287,0.5271322,0.9699433,0.80515224,0.13703477,0.25704768,0.8147119,1.2546601,0.49439892,0.1696247,1.2349244,0.7792313,0.18564253,0.023278465,0.9008692,0.49437004,-0.18443671,0.15482053,0.6942057,745.42126,767.1795,880.40295,761.9414,787.326,27.999996,0.0,0.39666748046875,0.07293701171875,0.91754150390625,3.521575927734375,-5.271148681640625,-0.40374755859375,1208791.2087912087,101257216.11721613,34470695.97069597,79.86944,1.0,1.0,1.0,1.0,1.0,25.0,/muse/elements/blink,0 days 00:00:00
2023-11-09 13:09:44.666,1.113925,0.7720287,0.5271322,0.9699433,0.80515224,0.13703477,0.25704768,0.8147119,1.2546601,0.49439892,0.1696247,1.2349244,0.7792313,0.18564253,0.023278465,0.9008692,0.49437004,-0.18443671,0.15482053,0.6942057,767.1795,760.7326,873.5531,740.989,718.8278,27.999996,0.0,0.39666748046875,0.07293701171875,0.91754150390625,3.521575927734375,-5.271148681640625,-0.40374755859375,1208791.2087912087,101257216.11721613,34470695.97069597,79.86944,1.0,1.0,1.0,1.0,1.0,25.0,/muse/elements/blink,0 days 00:00:00.001000
2023-11-09 13:09:44.666,1.113925,0.75387084,0.5271322,0.9925711,0.80515224,0.2628193,0.25704768,0.84236825,1.2546601,0.5539155,0.1696247,1.2349244,0.7792313,0.19577228,0.023278465,0.89997023,0.49437004,-0.18660665,0.15482053,0.68377733,782.0879,752.674,867.50916,752.674,886.8498,29.999998,0.0,0.39666748046875,0.07293701171875,0.91754150390625,3.521575927734375,-5.271148681640625,-0.40374755859375,1208791.2087912087,101257216.11721613,34470695.97069597,79.86944,1.0,1.0,1.0,1.0,1.0,25.0,/muse/elements/blink,0 days 00:00:00
2023-11-09 13:09:44.667,1.113925,0.75387084,0.5271322,0.9925711,0.80515224,0.2628193,0.25704768,0.84236825,1.2546601,0.5539155,0.1696247,1.2349244,0.7792313,0.19577228,0.023278465,0.89997023,0.49437004,-0.18660665,0.15482053,0.68377733,747.03296,756.30035,864.68866,774.0293,929.9634,29.999998,0.0,0.39666748046875,0.07293701171875,0.91754150390625,3.521575927734375,-5.271148681640625,-0.40374755859375,1208791.2087912087,101257216.11721613,34470695.97069597,79.86944,1.0,1.0,1.0,1.0,1.0,25.0,/muse/elements/blink,0 days 00:00:00.001000
2023-11-09 13:09:44.668,1.113925,0.75387084,0.5271322,0.9925711,0.80515224,0.2628193,0.25704768,0.84236825,1.2546601,0.5539155,0.1696247,1.2349244,0.7792313,0.19577228,0.023278465,0.89997023,0.49437004,-0.18660665,0.15482053,0.68377733,721.6484,758.315,861.06226,754.2857,803.0403,29.999998,0.0,0.39666748046875,0.07293701171875,0.91754150390625,3.521575927734375,-5.271148681640625,-0.40374755859375,1208791.2087912087,101257216.11721613,34470695.97069597,79.86944,1.0,1.0,1.0,1.0,1.0,25.0,/muse/elements/blink,0 days 00:00:00.001000
2023-11-09 13:09:44.755,1.113925,0.75387084,0.5271322,0.9925711,0.80515224,0.2628193,0.25704768,0.84236825,1.2546601,0.5539155,0.1696247,1.2349244,0.7792313,0.19577228,0.023278465,0.89997023,0.49437004,-0.18660665,0.15482053,0.68377733,720.84247,758.71796,857.8388,736.9597,818.3516,29.999998,0.0,0.3927001953125,0.0728759765625,0.91168212890625,2.7813720703125,-4.882354736328125,-0.40374755859375,1208791.2087912087,101257216.11721613,34470695.97069597,79.86944,1.0,1.0,1.0,1.0,1.0,25.0,/muse/elements/blink,0 days 00:00:00.087000
2023-11-09 13:09:44.756,1.113925,0.75387084,0.5271322,0.9925711,0.80515224,0.2628193,0.25704768,0.84236825,1.2546601,0.5539155,0.1696247,1.2349244,0.7792313,0.19577228,0.023278465,0.89997023,0.49437004,-0.18660665,0.15482053,0.68377733,738.5714,755.4945,865.4945,740.18317,883.22345,29.999998,0.0,0.3927001953125,0.0728759765625,0.91168212890625,2.7813720703125,-4.882354736328125,-0.40374755859375,1208791.2087912087,101257216.11721613,34470695.97069597,79.86944,1.0,1.0,1.0,1.0,1.0,25.0,/muse/elements/blink,0 days 00:00:00.001000
2023-11-09 13:09:44.756,1.113925,0.75387084,0.5271322,0.9925711,0.80515224,0.2628193,0.25704768,0.84236825,1.2546601,0.5539155,0.1696247,1.2349244,0.7792313,0.19577228,0.023278465,0.89997023,0.49437004,-0.18660665,0.15482053,0.68377733,738.1685,753.47986,872.74725,736.55676,807.8755,29.999998,0.0,0.3927001953125,0.0728759765625,0.91168212890625,2.7813720703125,-4.882354736328125,-0.40374755859375,1208791.2087912087,101257216.11721613,34470695.97069597,79.86944,1.0,1.0,1.0,1.0,1.0,25.0,/muse/elements/blink,0 days 00:00:00
2023-11-09 13:09:44.757,1.113925,0.75387084,0.5271322,0.9925711,0.80515224,0.2628193,0.25704768,0.84236825,1.2546601,0.5539155,0.1696247,1.2349244,0.7792313,0.19577228,0.023278465,0.89997023,0.49437004,-0.18660665,0.15482053,0.68377733,726.8865,761.9414,871.13556,740.989,731.31866,29.999998,0.0,0.3927001953125,0.0728759765625,0.91168212890625,2.7813720703125,-4.882354736328125,-0.40374755859375,1208791.2087912087,101257216.11721613,34470695.97069597,79.86944,1.0,1.0,1.0,1.0,1.0,25.0,/muse/elements/blink,0 days 00:00:00.001000
2023-11-09 13:09:44.757,1.113925,0.75387084,0.5271322,0.9925711,0.80515224,0.2628193,0.25704768,0.84236825,1.2546601,0.5539155,0.1696247,1.2349244,0.7792313,0.19577228,0.023278465,0.89997023,0.49437004,-0.18660665,0.15482053,0.68377733,733.73627,757.9121,861.4652,751.06226,752.674,29.999998,0.0,0.3927001953125,0.0728759765625,0.91168212890625,2.7813720703125,-4.882354736328125,-0.40374755859375,1208791.2087912087,101257216.11721613,34470695.97069597,79.86944,1.0,1.0,1.0,1.0,1.0,25.0,/muse/elements/blink,0 days 00:00:00
2023-11-09 13:09:44.758,1.113925,0.75387084,0.5271322,0.9925711,0.80515224,0.2628193,0.25704768,0.84236825,1.2546601,0.5539155,0.1696247,1.2349244,0.7792313,0.19577228,0.023278465,0.89997023,0.49437004,-0.18660665,0.15482053,0.68377733,753.47986,747.03296,861.8681,779.2674,1013.7729,29.999998,0.0,0.3927001953125,0.0728759765625,0.91168212890625,2.7813720703125,-4.882354736328125,-0.40374755859375,1208791.2087912087,101257216.11721613,34470695.97069597,79.86944,1.0,1.0,1.0,1.0,1.0,25.0,/muse/elements/blink,0 days 00:00:00.001000
2023-11-09 13:09:44.758,1.113925,0.75387084,0.5271322,0.9925711,0.80515224,0.2628193,0.25704768,0.84236825,1.2546601,0.5539155,0.1696247,1.2349244,0.7792313,0.19577228,0.023278465,0.89997023,0.49437004,-0.18660665,0.15482053,0.68377733,742.1978,750.2564,868.71796,786.52014,1016.5934,29.999998,0.0,0.3927001953125,0.0728759765625,0.91168212890625,2.7813720703125,-4.882354736328125,-0.40374755859375,1208791.2087912087,101257216.11721613,34470695.97069597,79.86944,1.0,1.0,1.0,1.0,1.0,25.0,/muse/elements/blink,0 days 00:00:00
2023-11-09 13:09:44.758,1.113925,0.75387084,0.5271322,0.9925711,0.80515224,0.2628193,0.25704768,0.84236825,1.2546601,0.5539155,0.1696247,1.2349244,0.7792313,0.19577228,0.023278465,0.89997023,0.49437004,-0.18660665,0.15482053,0.68377733,714.3956,760.7326,859.45056,747.8388,717.2161,29.999998,0.0,0.3927001953125,0.0728759765625,0.91168212890625,2.7813720703125,-4.882354736328125,-0.40374755859375,1208791.2087912087,101257216.11721613,34470695.97069597,79.86944,1.0,1.0,1.0,1.0,1.0,25.0,/muse/elements/blink,0 days 00:00:00
2023-11-09 13:09:44.758,1.113925,0.75387084,0.5271322,0.9925711,0.80515224,0.2628193,0.25704768,0.84236825,1.2546601,0.5539155,0.1696247,1.2349244,0.7792313,0.19577228,0.023278465,0.89997023,0.49437004,-0.18660665,0.15482053,0.68377733,729.304,763.5531,855.82416,742.6007,734.5421,29.999998,0.0,0.3927001953125,0.0728759765625,0.91168212890625,2.7813720703125,-4.882354736328125,-0.40374755859375,1208791.2087912087,101257216.11721613,34470695.97069597,79.86944,1.0,1.0,1.0,1.0,1.0,25.0,/muse/elements/blink,0 days 00:00:00
2023-11-09 13:09:44.759,1.113925,0.75387084,0.5271322,0.9925711,0.80515224,0.2628193,0.25704768,0.84236825,1.2546601,0.5539155,0.1696247,1.2349244,0.7792313,0.19577228,0.023278465,0.89997023,0.49437004,-0.18660665,0.15482053,0.68377733,742.6007,758.315,861.8681,775.2381,830.4396,29.999998,0.0,0.3927001953125,0.0728759765625,0.91168212890625,2.7813720703125,-4.882354736328125,-0.40374755859375,1208791.2087912087,101257216.11721613,34470695.97069597,79.86944,1.0,1.0,1.0,1.0,1.0,25.0,/muse/elements/blink,0 days 00:00:00.001000
2023-11-09 13:09:44.759,1.113925,0.75387084,0.5271322,0.9925711,0.80515224,0.2628193,0.25704768,0.84236825,1.2546601,0.5539155,0.1696247,1.2349244,0.7792313,0.19577228,0.023278465,0.89997023,0.49437004,-0.18660665,0.15482053,0.68377733,725.6777,753.8828,854.61536,754.68866,693.44324,29.999998,0.0,0.3927001953125,0.0728759765625,0.91168212890625,2.7813720703125,-4.882354736328125,-0.40374755859375,1208791.2087912087,101257216.11721613,34470695.97069597,79.86944,1.0,1.0,1.0,1.0,1.0,25.0,/muse/elements/blink,0 days 00:00:00
2023-11-09 13:09:44.759,1.113925,0.75387084,0.5271322,0.9925711,0.80515224,0.2628193,0.25704768,0.84236825,1.2546601,0.5539155,0.1696247,1.2349244,0.7792313,0.19577228,0.023278465,0.89997023,0.49437004,-0.18660665,0.15482053,0.68377733,740.18317,749.0476,844.1392,740.58606,622.1245,29.999998,0.0,0.3927001953125,0.0728759765625,0.91168212890625,2.7813720703125,-4.882354736328125,-0.40374755859375,1208791.2087912087,101257216.11721613,34470695.97069597,79.86944,1.0,1.0,1.0,1.0,1.0,25.0,/muse/elements/blink,0 days 00:00:00
2023-11-09 13:09:44.763,1.113925,0.75387084,0.5271322,0.9925711,0.80515224,0.2628193,0.25704768,0.84236825,1.2546601,0.5539155,0.1696247,1.2349244,0.7792313,0.19577228,0.023278465,0.89997023,0.49437004,-0.18660665,0.15482053,0.68377733,742.1978,748.24176,842.52747,753.8828,740.58606,29.999998,0.0,0.3975830078125,0.0733642578125,0.91290283203125,2.743988037109375,-4.732818603515625,-1.128997802734375,1220073.26007326,101302344.32234432,34463443.223443225,79.86944,1.0,1.0,1.0,1.0,1.0,25.0,/muse/elements/blink,0 days 00:00:00.004000
2023-11-09 13:09:44.763,1.113925,0.75387084,0.5271322,0.9925711,0.80515224,0.2628193,0.25704768,0.84236825,1.2546601,0.5539155,0.1696247,1.2349244,0.7792313,0.19577228,0.023278465,0.89997023,0.49437004,-0.18660665,0.15482053,0.68377733,728.9011,751.06226,849.7802,753.0769,850.58606,29.999998,0.0,0.3975830078125,0.0733642578125,0.91290283203125,2.743988037109375,-4.732818603515625,-1.128997802734375,1220073.26007326,101302344.32234432,34463443.223443225,79.86944,1.0,1.0,1.0,1.0,1.0,25.0,/muse/elements/blink,0 days 00:00:00
2023-11-09 13:09:44.763,1.113925,0.75387084,0.5271322,0.9925711,0.80515224,0.2628193,0.25704768,0.84236825,1.2546601,0.5539155,0.1696247,1.2349244,0.7792313,0.19577228,0.023278465,0.89997023,0.49437004,-0.18660665,0.15482053,0.68377733,739.3773,756.7033,850.18317,735.7509,747.4359,29.999998,0.0,0.3975830078125,0.0733642578125,0.91290283203125,2.743988037109375,-4.732818603515625,-1.128997802734375,1220073.26007326,101302344.32234432,34463443.223443225,79.86944,1.0,1.0,1.0,1.0,1.0,25.0,/muse/elements/blink,0 days 00:00:00
2023-11-09 13:09:44.764,1.113925,0.75387084,0.5271322,0.9925711,0.80515224,0.2628193,0.25704768,0.84236825,1.2546601,0.5539155,0.1696247,1.2349244,0.7792313,0.19577228,0.023278465,0.89997023,0.49437004,-0.18660665,0.15482053,0.68377733,730.10986,754.2857,846.55676,730.5128,715.6044,29.999998,0.0,0.3975830078125,0.0733642578125,0.91290283203125,2.743988037109375,-4.732818603515625,-1.128997802734375,1220073.26007326,101302344.32234432,34463443.223443225,79.86944,1.0,1.0,1.0,1.0,1.0,25.0,/muse/elements/blink,0 days 00:00:00.001000
2023-11-09 13:09:44.764,1.113925,0.75387084,0.5271322,0.9925711,0.80515224,0.2628193,0.25704768,0.84236825,1.2546601,0.5539155,0.1696247,1.2349244,0.7792313,0.19577228,0.023278465,0.89997023,0.49437004,-0.18660665,0.15482053,0.68377733,730.10986,755.09155,850.989,748.24176,742.1978,29.999998,0.0,0.3975830078125,0.0733642578125,0.91290283203125,2.743988037109375,-4.732818603515625,-1.128997802734375,1220073.26007326,101302344.32234432,34463443.223443225,79.86944,1.0,1.0,1.0,1.0,1.0,25.0,/muse/elements/blink,0 days 00:00:00
2023-11-09 13:09:44.764,1.113925,0.75387084,0.5271322,0.9925711,0.80515224,0.2628193,0.25704768,0.84236825,1.2546601,0.5539155,0.1696247,1.2349244,0.7792313,0.19577228,0.023278465,0.89997023,0.49437004,-0.18660665,0.15482053,0.68377733,750.65936,757.9121,848.97437,749.0476,751.8681,29.999998,0.0,0.3975830078125,0.0733642578125,0.91290283203125,2.743988037109375,-4.732818603515625,-1.128997802734375,1220073.26007326,101302344.32234432,34463443.223443225,79.86944,1.0,1.0,1.0,1.0,1.0,25.0,/muse/elements/blink,0 days 00:00:00
2023-11-09 13:09:44.764,1.113925,0.75387084,0.5271322,0.9925711,0.80515224,0.2628193,0.25704768,0.84236825,1.2546601,0.5539155,0.1696247,1.2349244,0.7792313,0.19577228,0.023278465,0.89997023,0.49437004,-0.18660665,0.15482053,0.68377733,736.1539,755.89746,855.0183,736.9597,776.04395,29.999998,0.0,0.3975830078125,0.0733642578125,0.91290283203125,2.743988037109375,-4.732818603515625,-1.128997802734375,1220073.26007326,101302344.32234432,34463443.223443225,79.86944,1.0,1.0,1.0,1.0,1.0,25.0,/muse/elements/blink,0 days 00:00:00
2023-11-09 13:09:44.765,1.113925,0.75387084,0.5271322,0.9925711,0.80515224,0.2628193,0.25704768,0.84236825,1.2546601,0.5539155,0.1696247,1.2349244,0.7792313,0.19577228,0.023278465,0.89997023,0.49437004,-0.18660665,0.15482053,0.68377733,724.87177,758.71796,854.21246,709.15753,726.8865,29.999998,0.0,0.3975830078125,0.0733642578125,0.91290283203125,2.743988037109375,-4.732818603515625,-1.128997802734375,1220073.26007326,101302344.32234432,34463443.223443225,79.86944,1.0,1.0,1.0,1.0,1.0,25.0,/muse/elements/blink,0 days 00:00:00.001000
2023-11-09 13:09:44.765,1.113925,0.75387084,0.5271322,0.9925711,0.80515224,0.2628193,0.25704768,0.84236825,1.2546601,0.5539155,0.1696247,1.2349244,0.7792313,0.19577228,0.023278465,0.89997023,0.49437004,-0.18660665,0.15482053,0.68377733,743.00366,763.95605,848.5714,724.0659,807.47253,29.999998,0.0,0.3975830078125,0.0733642578125,0.91290283203125,2.743988037109375,-4.732818603515625,-1.128997802734375,1220073.26007326,101302344.32234432,34463443.223443225,79.86944,1.0,1.0,1.0,1.0,1.0,25.0,/muse/elements/blink,0 days 00:00:00
2023-11-09 13:09:44.765,1.113925,0.75387084,0.5271322,0.9925711,0.80515224,0.2628193,0.25704768,0.84236825,1.2546601,0.5539155,0.1696247,1.2349244,0.7792313,0.19577228,0.023278465,0.89997023,0.49437004,-0.18660665,0.15482053,0.68377733,740.18317,761.53845,848.5714,746.63007,800.2198,29.999998,0.0,0.3975830078125,0.0733642578125,0.91290283203125,2.743988037109375,-4.732818603515625,-1.128997802734375,1220073.26007326,101302344.32234432,34463443.223443225,79.86944,1.0,1.0,1.0,1.0,1.0,25.0,/muse/elements/blink,0 days 00:00:00
2023-11-09 13:09:44.766,1.113925,0.75387084,0.5271322,0.9925711,0.80515224,0.2628193,0.25704768,0.84236825,1.2546601,0.5539155,0.1696247,1.2349244,0.7792313,0.19577228,0.023278465,0.89997023,0.49437004,-0.18660665,0.15482053,0.68377733,757.50916,757.9121,844.5421,749.45056,693.0403,29.999998,0.0,0.3975830078125,0.0733642578125,0.91290283203125,2.743988037109375,-4.732818603515625,-1.128997802734375,1220073.26007326,101302344.32234432,34463443.223443225,79.86944,1.0,1.0,1.0,1.0,1.0,25.0,/muse/elements/blink,0 days 00:00:00.001000
2023-11-09 13:09:44.766,1.113925,0.78469276,0.5271322,1.0087281,0.80515224,0.47402254,0.25704768,0.8711984,1.2546601,0.6950417,0.1696247,1.2326596,0.7792313,0.21282192,0.023278465,0.89566696,0.49437004,-0.18609026,0.15482053,0.6697069,753.0769,754.68866,831.2454,755.09155,732.52747,32.0,0.0,0.3975830078125,0.0733642578125,0.91290283203125,2.743988037109375,-4.732818603515625,-1.128997802734375,1220073.26007326,101302344.32234432,34463443.223443225,79.86944,1.0,1.0,1.0,1.0,1.0,25.0,/muse/elements/blink,0 days 00:00:00
2023-11-09 13:09:44.817,1.113925,0.78469276,0.5271322,1.0087281,0.80515224,0.47402254,0.25704768,0.8711984,1.2546601,0.6950417,0.1696247,1.2326596,0.7792313,0.21282192,0.023278465,0.89566696,0.49437004,-0.18609026,0.15482053,0.6697069,743.4066,749.85345,841.31866,760.32965,875.9707,32.0,0.0,0.3975830078125,0.0733642578125,0.91290283203125,2.743988037109375,-4.732818603515625,-1.128997802734375,1220073.26007326,101302344.32234432,34463443.223443225,79.86944,1.0,1.0,1.0,1.0,1.0,25.0,/muse/elements/blink,0 days 00:00:00.051000
2023-11-09 13:09:44.818,1.113925,0.78469276,0.5271322,1.0087281,0.80515224,0.47402254,0.25704768,0.8711984,1.2546601,0.6950417,0.1696247,1.2326596,0.7792313,0.21282192,0.023278465,0.89566696,0.49437004,-0.18609026,0.15482053,0.6697069,771.6117,757.50916,859.0476,784.10254,1048.4249,32.0,0.0,0.3975830078125,0.0733642578125,0.91290283203125,2.743988037109375,-4.732818603515625,-1.128997802734375,1220073.26007326,101302344.32234432,34463443.223443225,79.86944,1.0,1.0,1.0,1.0,1.0,25.0,/muse/elements/blink,0 days 00:00:00.001000
2023-11-09 13:09:44.818,1.113925,0.78469276,0.5271322,1.0087281,0.80515224,0.47402254,0.25704768,0.8711984,1.2546601,0.6950417,0.1696247,1.2326596,0.7792313,0.21282192,0.023278465,0.89566696,0.49437004,-0.18609026,0.15482053,0.6697069,740.18317,766.3736,833.2601,763.95605,839.707,32.0,0.0,0.3975830078125,0.0733642578125,0.91290283203125,2.743988037109375,-4.732818603515625,-1.128997802734375,1220073.26007326,101302344.32234432,34463443.223443225,79.86944,1.0,1.0,1.0,1.0,1.0,25.0,/muse/elements/blink,0 days 00:00:00
2023-11-09 13:09:44.819,1.113925,0.78469276,0.5271322,1.0087281,0.80515224,0.47402254,0.25704768,0.8711984,1.2546601,0.6950417,0.1696247,1.2326596,0.7792313,0.21282192,0.023278465,0.89566696,0.49437004,-0.18609026,0.15482053,0.6697069,728.49817,762.3443,812.3077,732.52747,788.1319,32.0,0.0,0.3975830078125,0.0733642578125,0.91290283203125,2.743988037109375,-4.732818603515625,-1.128997802734375,1220073.26007326,101302344.32234432,34463443.223443225,79.86944,1.0,1.0,1.0,1.0,1.0,25.0,/muse/elements/blink,0 days 00:00:00.001000
2023-11-09 13:09:44.819,1.113925,0.78469276,0.5271322,1.0087281,0.80515224,0.47402254,0.25704768,0.8711984,1.2546601,0.6950417,0.1696247,1.2326596,0.7792313,0.21282192,0.023278465,0.89566696,0.49437004,-0.18609026,0.15482053,0.6697069,745.82416,753.47986,823.5897,744.61536,879.59705,32.0,0.0,0.3975830078125,0.0733642578125,0.91290283203125,2.743988037109375,-4.732818603515625,-1.128997802734375,1220073.26007326,101302344.32234432,34463443.223443225,79.86944,1.0,1.0,1.0,1.0,1.0,25.0,/muse/elements/blink,0 days 00:00:00
2023-11-09 13:09:44.820,1.113925,0.78469276,0.5271322,1.0087281,0.80515224,0.47402254,0.25704768,0.8711984,1.2546601,0.6950417,0.1696247,1.2326596,0.7792313,0.21282192,0.023278465,0.89566696,0.49437004,-0.18609026,0.15482053,0.6697069,752.27106,755.4945,824.3956,747.8388,821.5751,32.0,0.0,0.3975830078125,0.0733642578125,0.91290283203125,2.743988037109375,-4.732818603515625,-1.128997802734375,1220073.26007326,101302344.32234432,34463443.223443225,79.86944,1.0,1.0,1.0,1.0,1.0,25.0,/muse/elements/blink,0 days 00:00:00.001000
2023-11-09 13:09:44.820,1.113925,0.78469276,0.5271322,1.0087281,0.80515224,0.47402254,0.25704768,0.8711984,1.2546601,0.6950417,0.1696247,1.2326596,0.7792313,0.21282192,0.023278465,0.89566696,0.49437004,-0.18609026,0.15482053,0.6697069,738.1685,765.16486,826.0073,745.42126,795.38464,32.0,0.0,0.3975830078125,0.0733642578125,0.91290283203125,2.743988037109375,-4.732818603515625,-1.128997802734375,1220073.26007326,101302344.32234432,34463443.223443225,79.86944,1.0,1.0,1.0,1.0,1.0,25.0,/muse/elements/blink,0 days 00:00:00
2023-11-09 13:09:44.821,1.113925,0.78469276,0.5271322,1.0087281,0.80515224,0.47402254,0.25704768,0.8711984,1.2546601,0.6950417,0.1696247,1.2326596,0.7792313,0.21282192,0.023278465,0.89566696,0.49437004,-0.18609026,0.15482053,0.6697069,740.989,766.3736,835.2747,757.1062,767.1795,32.0,0.0,0.3975830078125,0.0733642578125,0.91290283203125,2.743988037109375,-4.732818603515625,-1.128997802734375,1220073.26007326,101302344.32234432,34463443.223443225,79.86944,1.0,1.0,1.0,1.0,1.0,25.0,/muse/elements/blink,0 days 00:00:00.001000
2023-11-09 13:09:44.821,1.113925,0.78469276,0.5271322,1.0087281,0.80515224,0.47402254,0.25704768,0.8711984,1.2546601,0.6950417,0.1696247,1.2326596,0.7792313,0.21282192,0.023278465,0.89566696,0.49437004,-0.18609026,0.15482053,0.6697069,761.13556,756.7033,842.52747,779.67035,924.7253,32.0,0.0,0.3975830078125,0.0733642578125,0.91290283203125,2.743988037109375,-4.732818603515625,-1.128997802734375,1220073.26007326,101302344.32234432,34463443.223443225,79.86944,1.0,1.0,1.0,1.0,1.0,25.0,/muse/elements/blink,0 days 00:00:00
2023-11-09 13:09:44.822,1.113925,0.78469276,0.5271322,1.0087281,0.80515224,0.47402254,0.25704768,0.8711984,1.2546601,0.6950417,0.1696247,1.2326596,0.7792313,0.21282192,0.023278465,0.89566696,0.49437004,-0.18609026,0.15482053,0.6697069,729.707,756.7033,835.6777,746.2271,792.96704,32.0,0.0,0.3975830078125,0.0733642578125,0.91290283203125,2.743988037109375,-4.732818603515625,-1.128997802734375,1220073.26007326,101302344.32234432,34463443.223443225,79.86944,1.0,1.0,1.0,1.0,1.0,25.0,/muse/elements/blink,0 days 00:00:00.001000
2023-11-09 13:09:44.822,1.113925,0.78469276,0.5271322,1.0087281,0.80515224,0.47402254,0.25704768,0.8711984,1.2546601,0.6950417,0.1696247,1.2326596,0.7792313,0.21282192,0.023278465,0.89566696,0.49437004,-0.18609026,0.15482053,0.6697069,730.5128,761.9414,836.8865,739.7802,667.25275,32.0,0.0,0.3975830078125,0.0733642578125,0.91290283203125,2.743988037109375,-4.732818603515625,-1.128997802734375,1220073.26007326,101302344.32234432,34463443.223443225,79.86944,1.0,1.0,1.0,1.0,1.0,25.0,/muse/elements/blink,0 days 00:00:00
2023-11-09 13:09:44.823,1.113925,0.78469276,0.5271322,1.0087281,0.80515224,0.47402254,0.25704768,0.8711984,1.2546601,0.6950417,0.1696247,1.2326596,0.7792313,0.21282192,0.023278465,0.89566696,0.49437004,-0.18609026,0.15482053,0.6697069,753.8828,762.74725,829.6337,763.95605,713.5897,32.0,0.0,0.3975830078125,0.0733642578125,0.91290283203125,2.743988037109375,-4.732818603515625,-1.128997802734375,1220073.26007326,101302344.32234432,34463443.223443225,79.86944,1.0,1.0,1.0,1.0,1.0,25.0,/muse/elements/blink,0 days 00:00:00.001000
2023-11-09 13:09:44.856,1.113925,0.78469276,0.5271322,1.0087281,0.80515224,0.47402254,0.25704768,0.8711984,1.2546601,0.6950417,0.1696247,1.2326596,0.7792313,0.21282192,0.023278465,0.89566696,0.49437004,-0.18609026,0.15482053,0.6697069,750.2564,765.56775,815.12823,772.01465,735.34796,32.0,0.0,0.39990234375,0.07098388671875,0.91741943359375,2.295379638671875,-5.03936767578125,-1.592559814453125,1223296.7032967033,101337802.1978022,34487619.047619045,79.86944,1.0,1.0,1.0,1.0,1.0,25.0,/muse/elements/blink,0 days 00:00:00.033000
2023-11-09 13:09:44.857,1.113925,0.78469276,0.5271322,1.0087281,0.80515224,0.47402254,0.25704768,0.8711984,1.2546601,0.6950417,0.1696247,1.2326596,0.7792313,0.21282192,0.023278465,0.89566696,0.49437004,-0.18609026,0.15482053,0.6697069,749.45056,774.43225,821.5751,776.8498,728.0952,32.0,0.0,0.39990234375,0.07098388671875,0.91741943359375,2.295379638671875,-5.03936767578125,-1.592559814453125,1223296.7032967033,101337802.1978022,34487619.047619045,79.86944,1.0,1.0,1.0,1.0,1.0,25.0,/muse/elements/blink,0 days 00:00:00.001000
2023-11-09 13:09:44.858,1.113925,0.78469276,0.5271322,1.0087281,0.80515224,0.47402254,0.25704768,0.8711984,1.2546601,0.6950417,0.1696247,1.2326596,0.7792313,0.21282192,0.023278465,0.89566696,0.49437004,-0.18609026,0.15482053,0.6697069,761.9414,778.0586,826.8132,763.1502,647.50916,32.0,0.0,0.39990234375,0.07098388671875,0.91741943359375,2.295379638671875,-5.03936767578125,-1.592559814453125,1223296.7032967033,101337802.1978022,34487619.047619045,79.86944,1.0,1.0,1.0,1.0,1.0,25.0,/muse/elements/blink,0 days 00:00:00.001000
2023-11-09 13:09:44.859,1.113925,0.78469276,0.5271322,1.0087281,0.80515224,0.47402254,0.25704768,0.8711984,1.2546601,0.6950417,0.1696247,1.2326596,0.7792313,0.21282192,0.023278465,0.89566696,0.49437004,-0.18609026,0.15482053,0.6697069,765.9707,772.8205,835.6777,763.5531,671.28204,32.0,0.0,0.39990234375,0.07098388671875,0.91741943359375,2.295379638671875,-5.03936767578125,-1.592559814453125,1223296.7032967033,101337802.1978022,34487619.047619045,79.86944,1.0,1.0,1.0,1.0,1.0,25.0,/muse/elements/blink,0 days 00:00:00.001000
2023-11-09 13:09:44.859,1.113925,0.78469276,0.5271322,1.0087281,0.80515224,0.47402254,0.25704768,0.8711984,1.2546601,0.6950417,0.1696247,1.2326596,0.7792313,0.21282192,0.023278465,0.89566696,0.49437004,-0.18609026,0.15482053,0.6697069,761.53845,767.1795,829.6337,770.40295,692.23444,32.0,0.0,0.39990234375,0.07098388671875,0.91741943359375,2.295379638671875,-5.03936767578125,-1.592559814453125,1223296.7032967033,101337802.1978022,34487619.047619045,79.86944,1.0,1.0,1.0,1.0,1.0,25.0,/muse/elements/blink,0 days 00:00:00
2023-11-09 13:09:44.860,1.113925,0.78469276,0.5271322,1.0087281,0.80515224,0.47402254,0.25704768,0.8711984,1.2546601,0.6950417,0.1696247,1.2326596,0.7792313,0.21282192,0.023278465,0.89566696,0.49437004,-0.18609026,0.15482053,0.6697069,775.2381,768.7912,815.9341,759.12085,709.15753,32.0,0.0,0.39990234375,0.07098388671875,0.91741943359375,2.295379638671875,-5.03936767578125,-1.592559814453125,1223296.7032967033,101337802.1978022,34487619.047619045,79.86944,1.0,1.0,1.0,1.0,1.0,25.0,/muse/elements/blink,0 days 00:00:00.001000
2023-11-09 13:09:44.861,1.113925,0.78469276,0.5271322,1.0087281,0.80515224,0.47402254,0.25704768,0.8711984,1.2546601,0.6950417,0.1696247,1.2326596,0.7792313,0.21282192,0.023278465,0.89566696,0.49437004,-0.18609026,0.15482053,0.6697069,788.93774,776.8498,819.15753,762.74725,790.9524,32.0,0.0,0.39990234375,0.07098388671875,0.91741943359375,2.295379638671875,-5.03936767578125,-1.592559814453125,1223296.7032967033,101337802.1978022,34487619.047619045,79.86944,1.0,1.0,1.0,1.0,1.0,25.0,/muse/elements/blink,0 days 00:00:00.001000
2023-11-09 13:09:44.861,1.113925,0.78469276,0.5271322,1.0087281,0.80515224,0.47402254,0.25704768,0.8711984,1.2546601,0.6950417,0.1696247,1.2326596,0.7792313,0.21282192,0.023278465,0.89566696,0.49437004,-0.18609026,0.15482053,0.6697069,775.64105,780.4762,828.022,775.2381,878.7912,32.0,0.0,0.39990234375,0.07098388671875,0.91741943359375,2.295379638671875,-5.03936767578125,-1.592559814453125,1223296.7032967033,101337802.1978022,34487619.047619045,79.86944,1.0,1.0,1.0,1.0,1.0,25.0,/muse/elements/blink,0 days 00:00:00
2023-11-09 13:09:44.862,1.113925,0.78469276,0.5271322,1.0087281,0.80515224,0.47402254,0.25704768,0.8711984,1.2546601,0.6950417,0.1696247,1.2326596,0.7792313,0.21282192,0.023278465,0.89566696,0.49437004,-0.18609026,0.15482053,0.6697069,762.3443,780.07324,826.8132,770.0,840.5128,32.0,0.0,0.39990234375,0.07098388671875,0.91741943359375,2.295379638671875,-5.03936767578125,-1.592559814453125,1223296.7032967033,101337802.1978022,34487619.047619045,79.86944,1.0,1.0,1.0,1.0,1.0,25.0,/muse/elements/blink,0 days 00:00:00.001000
2023-11-09 13:09:44.862,1.113925,0.78469276,0.5271322,1.0087281,0.80515224,0.47402254,0.25704768,0.8711984,1.2546601,0.6950417,0.1696247,1.2326596,0.7792313,0.21282192,0.023278465,0.89566696,0.49437004,-0.18609026,0.15482053,0.6697069,787.72894,785.7143,828.4249,777.25275,771.2088,32.0,0.0,0.39990234375,0.07098388671875,0.91741943359375,2.295379638671875,-5.03936767578125,-1.592559814453125,1223296.7032967033,101337802.1978022,34487619.047619045,79.86944,1.0,1.0,1.0,1.0,1.0,25.0,/muse/elements/blink,0 days 00:00:00
2023-11-09 13:09:44.863,1.113925,0.78469276,0.5271322,1.0087281,0.80515224,0.47402254,0.25704768,0.8711984,1.2546601,0.6950417,0.1696247,1.2326596,0.7792313,0.21282192,0.023278465,0.89566696,0.49437004,-0.18609026,0.15482053,0.6697069,789.34064,786.1172,832.4542,787.326,819.15753,32.0,0.0,0.39990234375,0.07098388671875,0.91741943359375,2.295379638671875,-5.03936767578125,-1.592559814453125,1223296.7032967033,101337802.1978022,34487619.047619045,79.86944,1.0,1.0,1.0,1.0,1.0,25.0,/muse/elements/blink,0 days 00:00:00.001000
2023-11-09 13:09:44.863,1.113925,0.78469276,0.5271322,1.0087281,0.80515224,0.47402254,0.25704768,0.8711984,1.2546601,0.6950417,0.1696247,1.2326596,0.7792313,0.21282192,0.023278465,0.89566696,0.49437004,-0.18609026,0.15482053,0.6697069,783.2967,774.0293,836.4835,795.78754,950.9158,32.0,0.0,0.39990234375,0.07098388671875,0.91741943359375,2.295379638671875,-5.03936767578125,-1.592559814453125,1223296.7032967033,101337802.1978022,34487619.047619045,79.86944,1.0,1.0,1.0,1.0,1.0,25.0,/muse/elements/blink,0 days 00:00:00
2023-11-09 13:09:44.886,1.113925,0.78469276,0.5271322,1.0087281,0.80515224,0.47402254,0.25704768,0.8711984,1.2546601,0.6950417,0.1696247,1.2326596,0.7792313,0.21282192,0.023278465,0.89566696,0.49437004,-0.18609026,0.15482053,0.6697069,789.34064,766.77655,829.2308,812.71063,1108.4615,32.0,0.0,0.39996337890625,0.07269287109375,0.91448974609375,2.160797119140625,-4.972076416015625,-1.278533935546875,1223296.7032967033,101337802.1978022,34487619.047619045,79.86944,1.0,1.0,1.0,1.0,1.0,25.0,/muse/elements/blink,0 days 00:00:00.023000
2023-11-09 13:09:44.886,1.113925,0.75115424,0.5271322,1.0183574,0.80515224,0.4922778,0.25704768,0.9015411,1.2546601,0.6950417,0.1696247,1.2312016,0.7792313,0.21753635,0.023278465,0.88594174,0.49437004,-0.18407296,0.15482053,0.6520601,774.0293,776.8498,813.1135,767.5824,926.337,34.0,0.0,0.39996337890625,0.07269287109375,0.91448974609375,2.160797119140625,-4.972076416015625,-1.278533935546875,1223296.7032967033,101337802.1978022,34487619.047619045,79.86944,1.0,1.0,1.0,1.0,1.0,25.0,/muse/elements/blink,0 days 00:00:00
2023-11-09 13:09:44.888,1.113925,0.75115424,0.5271322,1.0183574,0.80515224,0.4922778,0.25704768,0.9015411,1.2546601,0.6950417,0.1696247,1.2312016,0.7792313,0.21753635,0.023278465,0.88594174,0.49437004,-0.18407296,0.15482053,0.6520601,779.2674,780.07324,812.71063,754.68866,745.0183,34.0,0.0,0.39996337890625,0.07269287109375,0.91448974609375,2.160797119140625,-4.972076416015625,-1.278533935546875,1223296.7032967033,101337802.1978022,34487619.047619045,79.86944,1.0,1.0,1.0,1.0,1.0,25.0,/muse/elements/blink,0 days 00:00:00.002000
2023-11-09 13:09:44.888,1.113925,0.75115424,0.5271322,1.0183574,0.80515224,0.4922778,0.25704768,0.9015411,1.2546601,0.6950417,0.1696247,1.2312016,0.7792313,0.21753635,0.023278465,0.88594174,0.49437004,-0.18407296,0.15482053,0.6520601,782.49084,774.43225,817.9487,769.19415,755.4945,34.0,0.0,0.39996337890625,0.07269287109375,0.91448974609375,2.160797119140625,-4.972076416015625,-1.278533935546875,1223296.7032967033,101337802.1978022,34487619.047619045,79.86944,1.0,1.0,1.0,1.0,1.0,25.0,/muse/elements/blink,0 days 00:00:00
2023-11-09 13:09:44.889,1.113925,0.75115424,0.5271322,1.0183574,0.80515224,0.4922778,0.25704768,0.9015411,1.2546601,0.6950417,0.1696247,1.2312016,0.7792313,0.21753635,0.023278465,0.88594174,0.49437004,-0.18407296,0.15482053,0.6520601,783.2967,778.46155,819.15753,789.7436,718.4249,34.0,0.0,0.39996337890625,0.07269287109375,0.91448974609375,2.160797119140625,-4.972076416015625,-1.278533935546875,1223296.7032967033,101337802.1978022,34487619.047619045,79.86944,1.0,1.0,1.0,1.0,1.0,25.0,/muse/elements/blink,0 days 00:00:00.001000
2023-11-09 13:09:44.889,1.113925,0.75115424,0.5271322,1.0183574,0.80515224,0.4922778,0.25704768,0.9015411,1.2546601,0.6950417,0.1696247,1.2312016,0.7792313,0.21753635,0.023278465,0.88594174,0.49437004,-0.18407296,0.15482053,0.6520601,809.4872,786.1172,823.1868,813.5165,720.84247,34.0,0.0,0.39996337890625,0.07269287109375,0.91448974609375,2.160797119140625,-4.972076416015625,-1.278533935546875,1223296.7032967033,101337802.1978022,34487619.047619045,79.86944,1.0,1.0,1.0,1.0,1.0,25.0,/muse/elements/blink,0 days 00:00:00
2023-11-09 13:09:44.889,1.113925,0.75115424,0.5271322,1.0183574,0.80515224,0.4922778,0.25704768,0.9015411,1.2546601,0.6950417,0.1696247,1.2312016,0.7792313,0.21753635,0.023278465,0.88594174,0.49437004,-0.18407296,0.15482053,0.6520601,792.96704,781.685,826.4103,798.20514,825.2015,34.0,0.0,0.39996337890625,0.07269287109375,0.91448974609375,2.160797119140625,-4.972076416015625,-1.278533935546875,1223296.7032967033,101337802.1978022,34487619.047619045,79.86944,1.0,1.0,1.0,1.0,1.0,25.0,/muse/elements/blink,0 days 00:00:00
2023-11-09 13:09:44.889,1.113925,0.75115424,0.5271322,1.0183574,0.80515224,0.4922778,0.25704768,0.9015411,1.2546601,0.6950417,0.1696247,1.2312016,0.7792313,0.21753635,0.023278465,0.88594174,0.49437004,-0.18407296,0.15482053,0.6520601,790.14655,767.98535,823.9927,803.44324,1066.1538,34.0,0.0,0.39996337890625,0.07269287109375,0.91448974609375,2.160797119140625,-4.972076416015625,-1.278533935546875,1223296.7032967033,101337802.1978022,34487619.047619045,79.86944,1.0,1.0,1.0,1.0,1.0,25.0,/muse/elements/blink,0 days 00:00:00
2023-11-09 13:09:44.890,1.113925,0.75115424,0.5271322,1.0183574,0.80515224,0.4922778,0.25704768,0.9015411,1.2546601,0.6950417,0.1696247,1.2312016,0.7792313,0.21753635,0.023278465,0.88594174,0.49437004,-0.18407296,0.15482053,0.6520601,796.5934,770.40295,811.50183,798.20514,933.5897,34.0,0.0,0.39996337890625,0.07269287109375,0.91448974609375,2.160797119140625,-4.972076416015625,-1.278533935546875,1223296.7032967033,101337802.1978022,34487619.047619045,79.86944,1.0,1.0,1.0,1.0,1.0,25.0,/muse/elements/blink,0 days 00:00:00.001000
2023-11-09 13:09:44.890,1.113925,0.75115424,0.5271322,1.0183574,0.80515224,0.4922778,0.25704768,0.9015411,1.2546601,0.6950417,0.1696247,1.2312016,0.7792313,0.21753635,0.023278465,0.88594174,0.49437004,-0.18407296,0.15482053,0.6520601,781.685,777.25275,808.68134,772.01465,758.71796,34.0,0.0,0.39996337890625,0.07269287109375,0.91448974609375,2.160797119140625,-4.972076416015625,-1.278533935546875,1223296.7032967033,101337802.1978022,34487619.047619045,79.86944,1.0,1.0,1.0,1.0,1.0,25.0,/muse/elements/blink,0 days 00:00:00
2023-11-09 13:09:44.890,1.113925,0.75115424,0.5271322,1.0183574,0.80515224,0.4922778,0.25704768,0.9015411,1.2546601,0.6950417,0.1696247,1.2312016,0.7792313,0.21753635,0.023278465,0.88594174,0.49437004,-0.18407296,0.15482053,0.6520601,799.011,780.4762,808.68134,779.67035,793.7729,34.0,0.0,0.39996337890625,0.07269287109375,0.91448974609375,2.160797119140625,-4.972076416015625,-1.278533935546875,1223296.7032967033,101337802.1978022,34487619.047619045,79.86944,1.0,1.0,1.0,1.0,1.0,25.0,/muse/elements/blink,0 days 00:00:00
2023-11-09 13:09:44.891,1.113925,0.75115424,0.5271322,1.0183574,0.80515224,0.4922778,0.25704768,0.9015411,1.2546601,0.6950417,0.1696247,1.2312016,0.7792313,0.21753635,0.023278465,0.88594174,0.49437004,-0.18407296,0.15482053,0.6520601,809.0842,784.90845,803.0403,785.31134,863.8828,34.0,0.0,0.39996337890625,0.07269287109375,0.91448974609375,2.160797119140625,-4.972076416015625,-1.278533935546875,1223296.7032967033,101337802.1978022,34487619.047619045,79.86944,1.0,1.0,1.0,1.0,1.0,25.0,/muse/elements/blink,0 days 00:00:00.001000
2023-11-09 13:09:44.958,1.113925,0.75115424,0.5271322,1.0183574,0.80515224,0.4922778,0.25704768,0.9015411,1.2546601,0.6950417,0.1696247,1.2312016,0.7792313,0.21753635,0.023278465,0.88594174,0.49437004,-0.18407296,0.15482053,0.6520601,791.3553,785.31134,802.23444,779.2674,864.68866,34.0,0.0,0.4010009765625,0.0703125,0.91339111328125,2.340240478515625,-5.21881103515625,-0.76263427734375,1212820.5128205128,101382930.4029304,34490842.49084249,79.86944,1.0,1.0,1.0,1.0,1.0,25.0,/muse/elements/blink,0 days 00:00:00.067000
2023-11-09 13:09:44.959,1.113925,0.75115424,0.5271322,1.0183574,0.80515224,0.4922778,0.25704768,0.9015411,1.2546601,0.6950417,0.1696247,1.2312016,0.7792313,0.21753635,0.023278465,0.88594174,0.49437004,-0.18407296,0.15482053,0.6520601,786.52014,782.8938,809.89014,782.8938,771.2088,34.0,0.0,0.4010009765625,0.0703125,0.91339111328125,2.340240478515625,-5.21881103515625,-0.76263427734375,1212820.5128205128,101382930.4029304,34490842.49084249,79.86944,1.0,1.0,1.0,1.0,1.0,25.0,/muse/elements/blink,0 days 00:00:00.001000
2023-11-09 13:09:44.959,1.113925,0.75115424,0.5271322,1.0183574,0.80515224,0.4922778,0.25704768,0.9015411,1.2546601,0.6950417,0.1696247,1.2312016,0.7792313,0.21753635,0.023278465,0.88594174,0.49437004,-0.18407296,0.15482053,0.6520601,782.8938,779.67035,815.5311,780.07324,770.40295,34.0,0.0,0.4010009765625,0.0703125,0.91339111328125,2.340240478515625,-5.21881103515625,-0.76263427734375,1212820.5128205128,101382930.4029304,34490842.49084249,79.86944,1.0,1.0,1.0,1.0,1.0,25.0,/muse/elements/blink,0 days 00:00:00
2023-11-09 13:09:44.960,1.113925,0.75115424,0.5271322,1.0183574,0.80515224,0.4922778,0.25704768,0.9015411,1.2546601,0.6950417,0.1696247,1.2312016,0.7792313,0.21753635,0.023278465,0.88594174,0.49437004,-0.18407296,0.15482053,0.6520601,787.72894,774.83514,809.89014,779.2674,757.9121,34.0,0.0,0.4010009765625,0.0703125,0.91339111328125,2.340240478515625,-5.21881103515625,-0.76263427734375,1212820.5128205128,101382930.4029304,34490842.49084249,79.86944,1.0,1.0,1.0,1.0,1.0,25.0,/muse/elements/blink,0 days 00:00:00.001000
