TimeStamp,Delta_TP9,Delta_AF7,Delta_AF8,Delta_TP10,Theta_TP9,Theta_AF7,Theta_AF8,Theta_TP10,Alpha_TP9,Alpha_AF7,Alpha_AF8,Alpha_TP10,Beta_TP9,Beta_AF7,Beta_AF8,Beta_TP10,Gamma_TP9,Gamma_AF7,Gamma_AF8,Gamma_TP10,RAW_TP9,RAW_AF7,RAW_AF8,RAW_TP10,AUX_RIGHT,Mellow,Concentration,Accelerometer_X,Accelerometer_Y,Accelerometer_Z,Gyro_X,Gyro_Y,Gyro_Z,PPG_Ambient,PPG_IR,PPG_Red,Heart_Rate,HeadBandOn,HSI_TP9,HSI_AF7,HSI_AF8,HSI_TP10,Battery,Elements,TimeDifference
2023-11-09 13:30:32.509,0.8669391,0.8173579,0.5996951,1.1141655,0.87773955,0.27909502,0.058342867,0.79762596,0.96337736,0.3619153,0.2782156,0.76745814,0.9068241,0.2553672,0.31941795,0.83182937,0.64711994,0.004196604,0.17011298,0.8336657,816.7399,820.3663,815.12823,832.0513,815.5311,0.0,0.0,0.38934326171875,0.03515625,0.91778564453125,5.084228515625,-6.4300537109375,1.60003662109375,5221172.161172161,108132820.51282053,59530549.450549446,79.86944,1.0,1.0,1.0,1.0,1.0,20.0,,0 days 00:00:00.062000
2023-11-09 13:30:32.510,0.8669391,0.8173579,0.5996951,1.1141655,0.87773955,0.27909502,0.058342867,0.79762596,0.96337736,0.3619153,0.2782156,0.76745814,0.9068241,0.2553672,0.31941795,0.83182937,0.64711994,0.004196604,0.17011298,0.8336657,817.9487,826.4103,805.8608,804.65204,779.2674,0.0,0.0,0.38934326171875,0.03515625,0.91778564453125,5.084228515625,-6.4300537109375,1.60003662109375,5221172.161172161,108132820.51282053,59530549.450549446,79.86944,1.0,1.0,1.0,1.0,1.0,20.0,,0 days 00:00:00.001000
2023-11-09 13:30:32.510,0.8669391,0.8173579,0.5996951,1.1141655,0.87773955,0.27909502,0.058342867,0.79762596,0.96337736,0.3619153,0.2782156,0.76745814,0.9068241,0.2553672,0.31941795,0.83182937,0.64711994,0.004196604,0.17011298,0.8336657,833.2601,823.1868,812.71063,826.4103,899.7436,0.0,0.0,0.38934326171875,0.03515625,0.91778564453125,5.084228515625,-6.4300537109375,1.60003662109375,5221172.161172161,108132820.51282053,59530549.450549446,79.86944,1.0,1.0,1.0,1.0,1.0,20.0,,0 days 00:00:00
2023-11-09 13:30:32.511,0.8669391,0.8173579,0.5996951,1.1141655,0.87773955,0.27909502,0.058342867,0.79762596,0.96337736,0.3619153,0.2782156,0.76745814,0.9068241,0.2553672,0.31941795,0.83182937,0.64711994,0.004196604,0.17011298,0.8336657,852.6007,823.9927,819.5604,835.2747,1013.7729,0.0,0.0,0.38934326171875,0.03515625,0.91778564453125,5.084228515625,-6.4300537109375,1.60003662109375,5221172.161172161,108132820.51282053,59530549.450549446,79.86944,1.0,1.0,1.0,1.0,1.0,20.0,,0 days 00:00:00.001000
2023-11-09 13:30:32.511,0.8669391,0.8173579,0.5996951,1.1141655,0.87773955,0.27909502,0.058342867,0.79762596,0.96337736,0.3619153,0.2782156,0.76745814,0.9068241,0.2553672,0.31941795,0.83182937,0.64711994,0.004196604,0.17011298,0.8336657,836.4835,826.0073,817.5458,821.1722,803.0403,0.0,0.0,0.38934326171875,0.03515625,0.91778564453125,5.084228515625,-6.4300537109375,1.60003662109375,5221172.161172161,108132820.51282053,59530549.450549446,79.86944,1.0,1.0,1.0,1.0,1.0,20.0,,0 days 00:00:00
2023-11-09 13:30:32.511,0.8669391,0.8173579,0.5996951,1.1141655,0.87773955,0.27909502,0.058342867,0.79762596,0.96337736,0.3619153,0.2782156,0.76745814,0.9068241,0.2553672,0.31941795,0.83182937,0.64711994,0.004196604,0.17011298,0.8336657,824.3956,823.1868,819.9634,812.71063,769.19415,0.0,0.0,0.38934326171875,0.03515625,0.91778564453125,5.084228515625,-6.4300537109375,1.60003662109375,5221172.161172161,108132820.51282053,59530549.450549446,79.86944,1.0,1.0,1.0,1.0,1.0,20.0,,0 days 00:00:00
2023-11-09 13:30:32.512,0.8669391,0.8173579,0.5996951,1.1141655,0.87773955,0.27909502,0.058342867,0.79762596,0.96337736,0.3619153,0.2782156,0.76745814,0.9068241,0.2553672,0.31941795,0.83182937,0.64711994,0.004196604,0.17011298,0.8336657,833.663,819.15753,825.2015,854.61536,934.3956,0.0,0.0,0.38934326171875,0.03515625,0.91778564453125,5.084228515625,-6.4300537109375,1.60003662109375,5221172.161172161,108132820.51282053,59530549.450549446,79.86944,1.0,1.0,1.0,1.0,1.0,20.0,,0 days 00:00:00.001000
2023-11-09 13:30:32.512,0.8669391,0.8173579,0.5996951,1.1141655,0.87773955,0.27909502,0.058342867,0.79762596,0.96337736,0.3619153,0.2782156,0.76745814,0.9068241,0.2553672,0.31941795,0.83182937,0.64711994,0.004196604,0.17011298,0.8336657,851.39197,821.1722,823.9927,873.1502,1039.1575,0.0,0.0,0.38934326171875,0.03515625,0.91778564453125,5.084228515625,-6.4300537109375,1.60003662109375,5221172.161172161,108132820.51282053,59530549.450549446,79.86944,1.0,1.0,1.0,1.0,1.0,20.0,,0 days 00:00:00
2023-11-09 13:30:32.513,0.8669391,0.8173579,0.5996951,1.1141655,0.87773955,0.27909502,0.058342867,0.79762596,0.96337736,0.3619153,0.2782156,0.76745814,0.9068241,0.2553672,0.31941795,0.83182937,0.64711994,0.004196604,0.17011298,0.8336657,852.6007,830.4396,821.1722,828.8278,835.6777,0.0,0.0,0.38934326171875,0.03515625,0.91778564453125,5.084228515625,-6.4300537109375,1.60003662109375,5221172.161172161,108132820.51282053,59530549.450549446,79.86944,1.0,1.0,1.0,1.0,1.0,20.0,,0 days 00:00:00.001000
2023-11-09 13:30:32.513,0.93673,0.8310294,0.62459356,1.1141655,0.9075353,0.29543275,0.06504595,0.79762596,0.96337736,0.36210188,0.27429977,0.76745814,0.8995174,0.26729062,0.31464896,0.83182937,0.63357687,-0.0052927407,0.18112393,0.8336657,850.989,831.6484,811.0989,814.3223,728.0952,0.0,0.0,0.38934326171875,0.03515625,0.91778564453125,5.084228515625,-6.4300537109375,1.60003662109375,5221172.161172161,108132820.51282053,59530549.450549446,79.86944,1.0,1.0,1.0,1.0,1.0,20.0,,0 days 00:00:00
2023-11-09 13:30:32.515,0.93673,0.8310294,0.62459356,1.1141655,0.9075353,0.29543275,0.06504595,0.79762596,0.96337736,0.36210188,0.27429977,0.76745814,0.8995174,0.26729062,0.31464896,0.83182937,0.63357687,-0.0052927407,0.18112393,0.8336657,837.6923,828.022,809.89014,805.05493,711.978,0.0,0.0,0.38934326171875,0.03515625,0.91778564453125,5.084228515625,-6.4300537109375,1.60003662109375,5221172.161172161,108132820.51282053,59530549.450549446,79.86944,1.0,1.0,1.0,1.0,1.0,20.0,,0 days 00:00:00.002000
2023-11-09 13:30:32.515,0.93673,0.8310294,0.62459356,1.1141655,0.9075353,0.29543275,0.06504595,0.79762596,0.96337736,0.36210188,0.27429977,0.76745814,0.8995174,0.26729062,0.31464896,0.83182937,0.63357687,-0.0052927407,0.18112393,0.8336657,824.3956,827.2161,809.0842,809.89014,690.6227,0.0,0.0,0.38934326171875,0.03515625,0.91778564453125,5.084228515625,-6.4300537109375,1.60003662109375,5221172.161172161,108132820.51282053,59530549.450549446,79.86944,1.0,1.0,1.0,1.0,1.0,20.0,,0 days 00:00:00
2023-11-09 13:30:32.542,0.93673,0.8310294,0.62459356,1.1141655,0.9075353,0.29543275,0.06504595,0.79762596,0.96337736,0.36210188,0.27429977,0.76745814,0.8995174,0.26729062,0.31464896,0.83182937,0.63357687,-0.0052927407,0.18112393,0.8336657,829.6337,832.4542,817.5458,827.2161,752.674,0.0,0.0,0.40008544921875,0.0433349609375,0.91986083984375,5.869293212890625,-10.639495849609377,3.895416259765625,5184102.564102564,108076410.25641026,59493479.853479855,79.86944,1.0,1.0,1.0,1.0,1.0,25.0,,0 days 00:00:00.027000
2023-11-09 13:30:32.543,0.93673,0.8310294,0.62459356,1.1141655,0.9075353,0.29543275,0.06504595,0.79762596,0.96337736,0.36210188,0.27429977,0.76745814,0.8995174,0.26729062,0.31464896,0.83182937,0.63357687,-0.0052927407,0.18112393,0.8336657,856.63007,835.6777,825.6044,839.707,792.1612,0.0,0.0,0.40008544921875,0.0433349609375,0.91986083984375,5.869293212890625,-10.639495849609377,3.895416259765625,5184102.564102564,108076410.25641026,59493479.853479855,79.86944,1.0,1.0,1.0,1.0,1.0,25.0,,0 days 00:00:00.001000
2023-11-09 13:30:32.543,0.93673,0.8310294,0.62459356,1.1141655,0.9075353,0.29543275,0.06504595,0.79762596,0.96337736,0.36210188,0.27429977,0.76745814,0.8995174,0.26729062,0.31464896,0.83182937,0.63357687,-0.0052927407,0.18112393,0.8336657,875.9707,834.87177,821.978,853.8095,769.59705,0.0,0.0,0.40008544921875,0.0433349609375,0.91986083984375,5.869293212890625,-10.639495849609377,3.895416259765625,5184102.564102564,108076410.25641026,59493479.853479855,79.86944,1.0,1.0,1.0,1.0,1.0,25.0,,0 days 00:00:00
2023-11-09 13:30:32.544,0.93673,0.8310294,0.62459356,1.1141655,0.9075353,0.29543275,0.06504595,0.79762596,0.96337736,0.36210188,0.27429977,0.76745814,0.8995174,0.26729062,0.31464896,0.83182937,0.63357687,-0.0052927407,0.18112393,0.8336657,839.304,831.2454,828.022,840.10986,756.30035,0.0,0.0,0.40008544921875,0.0433349609375,0.91986083984375,5.869293212890625,-10.639495849609377,3.895416259765625,5184102.564102564,108076410.25641026,59493479.853479855,79.86944,1.0,1.0,1.0,1.0,1.0,25.0,,0 days 00:00:00.001000
2023-11-09 13:30:32.544,0.93673,0.8310294,0.62459356,1.1141655,0.9075353,0.29543275,0.06504595,0.79762596,0.96337736,0.36210188,0.27429977,0.76745814,0.8995174,0.26729062,0.31464896,0.83182937,0.63357687,-0.0052927407,0.18112393,0.8336657,836.4835,825.6044,826.4103,820.7692,657.1795,0.0,0.0,0.40008544921875,0.0433349609375,0.91986083984375,5.869293212890625,-10.639495849609377,3.895416259765625,5184102.564102564,108076410.25641026,59493479.853479855,79.86944,1.0,1.0,1.0,1.0,1.0,25.0,,0 days 00:00:00
2023-11-09 13:30:32.544,0.93673,0.8310294,0.62459356,1.1141655,0.9075353,0.29543275,0.06504595,0.79762596,0.96337736,0.36210188,0.27429977,0.76745814,0.8995174,0.26729062,0.31464896,0.83182937,0.63357687,-0.0052927407,0.18112393,0.8336657,857.8388,821.978,808.68134,827.619,682.1612,0.0,0.0,0.40008544921875,0.0433349609375,0.91986083984375,5.869293212890625,-10.639495849609377,3.895416259765625,5184102.564102564,108076410.25641026,59493479.853479855,79.86944,1.0,1.0,1.0,1.0,1.0,25.0,,0 days 00:00:00
2023-11-09 13:30:32.545,0.93673,0.8310294,0.62459356,1.1141655,0.9075353,0.29543275,0.06504595,0.79762596,0.96337736,0.36210188,0.27429977,0.76745814,0.8995174,0.26729062,0.31464896,0.83182937,0.63357687,-0.0052927407,0.18112393,0.8336657,832.0513,819.5604,802.23444,825.6044,909.81683,0.0,0.0,0.40008544921875,0.0433349609375,0.91986083984375,5.869293212890625,-10.639495849609377,3.895416259765625,5184102.564102564,108076410.25641026,59493479.853479855,79.86944,1.0,1.0,1.0,1.0,1.0,25.0,,0 days 00:00:00.001000
2023-11-09 13:30:32.545,0.93673,0.8310294,0.62459356,1.1141655,0.9075353,0.29543275,0.06504595,0.79762596,0.96337736,0.36210188,0.27429977,0.76745814,0.8995174,0.26729062,0.31464896,0.83182937,0.63357687,-0.0052927407,0.18112393,0.8336657,850.18317,825.6044,807.8755,807.0696,915.8608,0.0,0.0,0.40008544921875,0.0433349609375,0.91986083984375,5.869293212890625,-10.639495849609377,3.895416259765625,5184102.564102564,108076410.25641026,59493479.853479855,79.86944,1.0,1.0,1.0,1.0,1.0,25.0,,0 days 00:00:00
2023-11-09 13:30:32.545,0.93673,0.8310294,0.62459356,1.1141655,0.9075353,0.29543275,0.06504595,0.79762596,0.96337736,0.36210188,0.27429977,0.76745814,0.8995174,0.26729062,0.31464896,0.83182937,0.63357687,-0.0052927407,0.18112393,0.8336657,841.7216,833.663,807.0696,802.6374,758.315,0.0,0.0,0.40008544921875,0.0433349609375,0.91986083984375,5.869293212890625,-10.639495849609377,3.895416259765625,5184102.564102564,108076410.25641026,59493479.853479855,79.86944,1.0,1.0,1.0,1.0,1.0,25.0,,0 days 00:00:00
2023-11-09 13:30:32.546,0.93673,0.8310294,0.62459356,1.1141655,0.9075353,0.29543275,0.06504595,0.79762596,0.96337736,0.36210188,0.27429977,0.76745814,0.8995174,0.26729062,0.31464896,0.83182937,0.63357687,-0.0052927407,0.18112393,0.8336657,804.2491,830.84247,801.4286,815.9341,779.2674,0.0,0.0,0.40008544921875,0.0433349609375,0.91986083984375,5.869293212890625,-10.639495849609377,3.895416259765625,5184102.564102564,108076410.25641026,59493479.853479855,79.86944,1.0,1.0,1.0,1.0,1.0,25.0,,0 days 00:00:00.001000
2023-11-09 13:30:32.546,0.93673,0.8310294,0.62459356,1.1141655,0.9075353,0.29543275,0.06504595,0.79762596,0.96337736,0.36210188,0.27429977,0.76745814,0.8995174,0.26729062,0.31464896,0.83182937,0.63357687,-0.0052927407,0.18112393,0.8336657,826.0073,828.8278,809.89014,814.3223,901.3553,0.0,0.0,0.40008544921875,0.0433349609375,0.91986083984375,5.869293212890625,-10.639495849609377,3.895416259765625,5184102.564102564,108076410.25641026,59493479.853479855,79.86944,1.0,1.0,1.0,1.0,1.0,25.0,,0 days 00:00:00
2023-11-09 13:30:32.546,0.93673,0.8310294,0.62459356,1.1141655,0.9075353,0.29543275,0.06504595,0.79762596,0.96337736,0.36210188,0.27429977,0.76745814,0.8995174,0.26729062,0.31464896,0.83182937,0.63357687,-0.0052927407,0.18112393,0.8336657,857.4359,833.663,822.381,815.12823,818.3516,0.0,0.0,0.40008544921875,0.0433349609375,0.91986083984375,5.869293212890625,-10.639495849609377,3.895416259765625,5184102.564102564,108076410.25641026,59493479.853479855,79.86944,1.0,1.0,1.0,1.0,1.0,25.0,,0 days 00:00:00
2023-11-09 13:30:32.607,0.93673,0.8310294,0.62459356,1.1141655,0.9075353,0.29543275,0.06504595,0.79762596,0.96337736,0.36210188,0.27429977,0.76745814,0.8995174,0.26729062,0.31464896,0.83182937,0.63357687,-0.0052927407,0.18112393,0.8336657,846.55676,830.84247,817.1429,830.4396,774.0293,0.0,0.0,0.40411376953125,0.05108642578125,0.92828369140625,4.78515625,-8.194580078125,4.366455078125,5184102.564102564,108076410.25641026,59493479.853479855,79.86944,1.0,1.0,1.0,1.0,1.0,25.0,,0 days 00:00:00.061000
2023-11-09 13:30:32.608,0.93673,0.8310294,0.62459356,1.1141655,0.9075353,0.29543275,0.06504595,0.79762596,0.96337736,0.36210188,0.27429977,0.76745814,0.8995174,0.26729062,0.31464896,0.83182937,0.63357687,-0.0052927407,0.18112393,0.8336657,804.2491,822.381,813.5165,833.663,853.00366,0.0,0.0,0.40411376953125,0.05108642578125,0.92828369140625,4.78515625,-8.194580078125,4.366455078125,5184102.564102564,108076410.25641026,59493479.853479855,79.86944,1.0,1.0,1.0,1.0,1.0,25.0,,0 days 00:00:00.001000
2023-11-09 13:30:32.609,0.93673,0.8310294,0.62459356,1.1141655,0.9075353,0.29543275,0.06504595,0.79762596,0.96337736,0.36210188,0.27429977,0.76745814,0.8995174,0.26729062,0.31464896,0.83182937,0.63357687,-0.0052927407,0.18112393,0.8336657,808.2784,817.5458,811.9048,820.7692,875.9707,0.0,0.0,0.40411376953125,0.05108642578125,0.92828369140625,4.78515625,-8.194580078125,4.366455078125,5184102.564102564,108076410.25641026,59493479.853479855,79.86944,1.0,1.0,1.0,1.0,1.0,25.0,,0 days 00:00:00.001000
2023-11-09 13:30:32.609,0.93673,0.8310294,0.62459356,1.1141655,0.9075353,0.29543275,0.06504595,0.79762596,0.96337736,0.36210188,0.27429977,0.76745814,0.8995174,0.26729062,0.31464896,0.83182937,0.63357687,-0.0052927407,0.18112393,0.8336657,818.7546,826.0073,811.50183,811.9048,776.4469,0.0,0.0,0.40411376953125,0.05108642578125,0.92828369140625,4.78515625,-8.194580078125,4.366455078125,5184102.564102564,108076410.25641026,59493479.853479855,79.86944,1.0,1.0,1.0,1.0,1.0,25.0,,0 days 00:00:00
2023-11-09 13:30:32.610,0.93673,0.8310294,0.62459356,1.1141655,0.9075353,0.29543275,0.06504595,0.79762596,0.96337736,0.36210188,0.27429977,0.76745814,0.8995174,0.26729062,0.31464896,0.83182937,0.63357687,-0.0052927407,0.18112393,0.8336657,826.8132,832.4542,816.337,813.5165,697.8755,0.0,0.0,0.40411376953125,0.05108642578125,0.92828369140625,4.78515625,-8.194580078125,4.366455078125,5184102.564102564,108076410.25641026,59493479.853479855,79.86944,1.0,1.0,1.0,1.0,1.0,25.0,,0 days 00:00:00.001000
2023-11-09 13:30:32.610,0.93673,0.8310294,0.62459356,1.1141655,0.9075353,0.29543275,0.06504595,0.79762596,0.96337736,0.36210188,0.27429977,0.76745814,0.8995174,0.26729062,0.31464896,0.83182937,0.63357687,-0.0052927407,0.18112393,0.8336657,805.05493,818.3516,811.50183,824.7985,957.3626,0.0,0.0,0.40411376953125,0.05108642578125,0.92828369140625,4.78515625,-8.194580078125,4.366455078125,5184102.564102564,108076410.25641026,59493479.853479855,79.86944,1.0,1.0,1.0,1.0,1.0,25.0,,0 days 00:00:00
2023-11-09 13:30:32.611,0.93673,0.8310294,0.62459356,1.1141655,0.9075353,0.29543275,0.06504595,0.79762596,0.96337736,0.36210188,0.27429977,0.76745814,0.8995174,0.26729062,0.31464896,0.83182937,0.63357687,-0.0052927407,0.18112393,0.8336657,799.81683,809.0842,807.0696,826.4103,1029.8901,0.0,0.0,0.40411376953125,0.05108642578125,0.92828369140625,4.78515625,-8.194580078125,4.366455078125,5184102.564102564,108076410.25641026,59493479.853479855,79.86944,1.0,1.0,1.0,1.0,1.0,25.0,,0 days 00:00:00.001000
2023-11-09 13:30:32.611,0.93673,0.8310294,0.62459356,1.1141655,0.9075353,0.29543275,0.06504595,0.79762596,0.96337736,0.36210188,0.27429977,0.76745814,0.8995174,0.26729062,0.31464896,0.83182937,0.63357687,-0.0052927407,0.18112393,0.8336657,803.0403,815.12823,813.5165,808.2784,744.61536,0.0,0.0,0.40411376953125,0.05108642578125,0.92828369140625,4.78515625,-8.194580078125,4.366455078125,5184102.564102564,108076410.25641026,59493479.853479855,79.86944,1.0,1.0,1.0,1.0,1.0,25.0,,0 days 00:00:00
2023-11-09 13:30:32.612,0.93673,0.8310294,0.62459356,1.1141655,0.9075353,0.29543275,0.06504595,0.79762596,0.96337736,0.36210188,0.27429977,0.76745814,0.8995174,0.26729062,0.31464896,0.83182937,0.63357687,-0.0052927407,0.18112393,0.8336657,797.8022,818.7546,817.5458,785.31134,674.10254,0.0,0.0,0.40411376953125,0.05108642578125,0.92828369140625,4.78515625,-8.194580078125,4.366455078125,5184102.564102564,108076410.25641026,59493479.853479855,79.86944,1.0,1.0,1.0,1.0,1.0,25.0,,0 days 00:00:00.001000
2023-11-09 13:30:32.613,0.93673,0.8310294,0.62459356,1.1141655,0.9075353,0.29543275,0.06504595,0.79762596,0.96337736,0.36210188,0.27429977,0.76745814,0.8995174,0.26729062,0.31464896,0.83182937,0.63357687,-0.0052927407,0.18112393,0.8336657,819.15753,819.15753,815.5311,805.05493,838.0952,0.0,0.0,0.40411376953125,0.05108642578125,0.92828369140625,4.78515625,-8.194580078125,4.366455078125,5184102.564102564,108076410.25641026,59493479.853479855,79.86944,1.0,1.0,1.0,1.0,1.0,25.0,,0 days 00:00:00.001000
2023-11-09 13:30:32.613,0.93673,0.8310294,0.62459356,1.1141655,0.9075353,0.29543275,0.06504595,0.79762596,0.96337736,0.36210188,0.27429977,0.76745814,0.8995174,0.26729062,0.31464896,0.83182937,0.63357687,-0.0052927407,0.18112393,0.8336657,822.381,828.4249,815.12823,813.1135,903.7729,0.0,0.0,0.40411376953125,0.05108642578125,0.92828369140625,4.78515625,-8.194580078125,4.366455078125,5184102.564102564,108076410.25641026,59493479.853479855,79.86944,1.0,1.0,1.0,1.0,1.0,25.0,,0 days 00:00:00
2023-11-09 13:30:32.614,0.95539075,0.8577453,0.65419734,1.1099904,0.9309786,0.31840533,0.07752053,0.7960613,0.96337736,0.36210188,0.27429977,0.7568343,0.8996642,0.27688798,0.3136539,0.823581,0.63141006,-0.01965925,0.188216,0.83967364,810.293,838.49817,817.5458,787.72894,655.56775,0.0,0.0,0.40411376953125,0.05108642578125,0.92828369140625,4.78515625,-8.194580078125,4.366455078125,5184102.564102564,108076410.25641026,59493479.853479855,79.86944,1.0,1.0,1.0,1.0,1.0,25.0,,0 days 00:00:00.001000
2023-11-09 13:30:32.652,0.95539075,0.8577453,0.65419734,1.1099904,0.9309786,0.31840533,0.07752053,0.7960613,0.96337736,0.36210188,0.27429977,0.7568343,0.8996642,0.27688798,0.3136539,0.823581,0.63141006,-0.01965925,0.188216,0.83967364,807.0696,830.84247,814.7253,796.1905,604.7985,0.0,0.0,0.403564453125,0.05609130859375,0.9119873046875,5.510406494140625,-8.366546630859375,1.4654541015625,5147838.827838828,108157802.1978022,59532967.03296703,79.86944,1.0,1.0,1.0,1.0,1.0,25.0,,0 days 00:00:00.038000
2023-11-09 13:30:32.653,0.95539075,0.8577453,0.65419734,1.1099904,0.9309786,0.31840533,0.07752053,0.7960613,0.96337736,0.36210188,0.27429977,0.7568343,0.8996642,0.27688798,0.3136539,0.823581,0.63141006,-0.01965925,0.188216,0.83967364,825.6044,828.022,816.7399,798.60803,634.61536,0.0,0.0,0.403564453125,0.05609130859375,0.9119873046875,5.510406494140625,-8.366546630859375,1.4654541015625,5147838.827838828,108157802.1978022,59532967.03296703,79.86944,1.0,1.0,1.0,1.0,1.0,25.0,,0 days 00:00:00.001000
2023-11-09 13:30:32.653,0.95539075,0.8577453,0.65419734,1.1099904,0.9309786,0.31840533,0.07752053,0.7960613,0.96337736,0.36210188,0.27429977,0.7568343,0.8996642,0.27688798,0.3136539,0.823581,0.63141006,-0.01965925,0.188216,0.83967364,828.8278,831.6484,815.9341,796.99634,626.9597,0.0,0.0,0.403564453125,0.05609130859375,0.9119873046875,5.510406494140625,-8.366546630859375,1.4654541015625,5147838.827838828,108157802.1978022,59532967.03296703,79.86944,1.0,1.0,1.0,1.0,1.0,25.0,,0 days 00:00:00
2023-11-09 13:30:32.653,0.95539075,0.8577453,0.65419734,1.1099904,0.9309786,0.31840533,0.07752053,0.7960613,0.96337736,0.36210188,0.27429977,0.7568343,0.8996642,0.27688798,0.3136539,0.823581,0.63141006,-0.01965925,0.188216,0.83967364,809.4872,830.0366,817.1429,803.8461,617.28937,0.0,0.0,0.403564453125,0.05609130859375,0.9119873046875,5.510406494140625,-8.366546630859375,1.4654541015625,5147838.827838828,108157802.1978022,59532967.03296703,79.86944,1.0,1.0,1.0,1.0,1.0,25.0,,0 days 00:00:00
2023-11-09 13:30:32.654,0.95539075,0.8577453,0.65419734,1.1099904,0.9309786,0.31840533,0.07752053,0.7960613,0.96337736,0.36210188,0.27429977,0.7568343,0.8996642,0.27688798,0.3136539,0.823581,0.63141006,-0.01965925,0.188216,0.83967364,799.011,824.7985,819.9634,805.4579,641.4652,0.0,0.0,0.403564453125,0.05609130859375,0.9119873046875,5.510406494140625,-8.366546630859375,1.4654541015625,5147838.827838828,108157802.1978022,59532967.03296703,79.86944,1.0,1.0,1.0,1.0,1.0,25.0,,0 days 00:00:00.001000
2023-11-09 13:30:32.654,0.95539075,0.8577453,0.65419734,1.1099904,0.9309786,0.31840533,0.07752053,0.7960613,0.96337736,0.36210188,0.27429977,0.7568343,0.8996642,0.27688798,0.3136539,0.823581,0.63141006,-0.01965925,0.188216,0.83967364,809.4872,826.8132,822.381,810.696,740.58606,0.0,0.0,0.403564453125,0.05609130859375,0.9119873046875,5.510406494140625,-8.366546630859375,1.4654541015625,5147838.827838828,108157802.1978022,59532967.03296703,79.86944,1.0,1.0,1.0,1.0,1.0,25.0,,0 days 00:00:00
2023-11-09 13:30:32.654,0.95539075,0.8577453,0.65419734,1.1099904,0.9309786,0.31840533,0.07752053,0.7960613,0.96337736,0.36210188,0.27429977,0.7568343,0.8996642,0.27688798,0.3136539,0.823581,0.63141006,-0.01965925,0.188216,0.83967364,820.3663,828.8278,818.3516,808.68134,753.0769,0.0,0.0,0.403564453125,0.05609130859375,0.9119873046875,5.510406494140625,-8.366546630859375,1.4654541015625,5147838.827838828,108157802.1978022,59532967.03296703,79.86944,1.0,1.0,1.0,1.0,1.0,25.0,,0 days 00:00:00
2023-11-09 13:30:32.655,0.95539075,0.8577453,0.65419734,1.1099904,0.9309786,0.31840533,0.07752053,0.7960613,0.96337736,0.36210188,0.27429977,0.7568343,0.8996642,0.27688798,0.3136539,0.823581,0.63141006,-0.01965925,0.188216,0.83967364,809.89014,826.4103,811.9048,781.685,621.31866,0.0,0.0,0.403564453125,0.05609130859375,0.9119873046875,5.510406494140625,-8.366546630859375,1.4654541015625,5147838.827838828,108157802.1978022,59532967.03296703,79.86944,1.0,1.0,1.0,1.0,1.0,25.0,,0 days 00:00:00.001000
2023-11-09 13:30:32.655,0.95539075,0.8577453,0.65419734,1.1099904,0.9309786,0.31840533,0.07752053,0.7960613,0.96337736,0.36210188,0.27429977,0.7568343,0.8996642,0.27688798,0.3136539,0.823581,0.63141006,-0.01965925,0.188216,0.83967364,818.3516,828.4249,807.8755,803.44324,625.7509,0.0,0.0,0.403564453125,0.05609130859375,0.9119873046875,5.510406494140625,-8.366546630859375,1.4654541015625,5147838.827838828,108157802.1978022,59532967.03296703,79.86944,1.0,1.0,1.0,1.0,1.0,25.0,,0 days 00:00:00
2023-11-09 13:30:32.656,0.95539075,0.8577453,0.65419734,1.1099904,0.9309786,0.31840533,0.07752053,0.7960613,0.96337736,0.36210188,0.27429977,0.7568343,0.8996642,0.27688798,0.3136539,0.823581,0.63141006,-0.01965925,0.188216,0.83967364,810.696,825.2015,807.47253,815.5311,764.35895,0.0,0.0,0.403564453125,0.05609130859375,0.9119873046875,5.510406494140625,-8.366546630859375,1.4654541015625,5147838.827838828,108157802.1978022,59532967.03296703,79.86944,1.0,1.0,1.0,1.0,1.0,25.0,,0 days 00:00:00.001000
2023-11-09 13:30:32.656,0.95539075,0.8577453,0.65419734,1.1099904,0.9309786,0.31840533,0.07752053,0.7960613,0.96337736,0.36210188,0.27429977,0.7568343,0.8996642,0.27688798,0.3136539,0.823581,0.63141006,-0.01965925,0.188216,0.83967364,807.47253,828.022,828.022,818.7546,665.64105,0.0,0.0,0.403564453125,0.05609130859375,0.9119873046875,5.510406494140625,-8.366546630859375,1.4654541015625,5147838.827838828,108157802.1978022,59532967.03296703,79.86944,1.0,1.0,1.0,1.0,1.0,25.0,,0 days 00:00:00
2023-11-09 13:30:32.656,0.95539075,0.8577453,0.65419734,1.1099904,0.9309786,0.31840533,0.07752053,0.7960613,0.96337736,0.36210188,0.27429977,0.7568343,0.8996642,0.27688798,0.3136539,0.823581,0.63141006,-0.01965925,0.188216,0.83967364,827.2161,829.6337,823.5897,815.9341,551.6117,0.0,0.0,0.403564453125,0.05609130859375,0.9119873046875,5.510406494140625,-8.366546630859375,1.4654541015625,5147838.827838828,108157802.1978022,59532967.03296703,79.86944,1.0,1.0,1.0,1.0,1.0,25.0,,0 days 00:00:00
2023-11-09 13:30:32.692,0.95539075,0.8577453,0.65419734,1.1099904,0.9309786,0.31840533,0.07752053,0.7960613,0.96337736,0.36210188,0.27429977,0.7568343,0.8996642,0.27688798,0.3136539,0.823581,0.63141006,-0.01965925,0.188216,0.83967364,811.9048,821.978,805.4579,794.9817,633.00366,0.0,0.0,0.42962646484375,0.04388427734375,0.91424560546875,6.213226318359375,-5.420684814453125,4.837493896484375,5147838.827838828,108157802.1978022,59532967.03296703,79.86944,1.0,1.0,1.0,1.0,1.0,25.0,,0 days 00:00:00.036000
2023-11-09 13:30:32.693,0.95539075,0.8577453,0.65419734,1.1099904,0.9309786,0.31840533,0.07752053,0.7960613,0.96337736,0.36210188,0.27429977,0.7568343,0.8996642,0.27688798,0.3136539,0.823581,0.63141006,-0.01965925,0.188216,0.83967364,817.5458,826.0073,813.5165,805.4579,709.15753,0.0,0.0,0.42962646484375,0.04388427734375,0.91424560546875,6.213226318359375,-5.420684814453125,4.837493896484375,5147838.827838828,108157802.1978022,59532967.03296703,79.86944,1.0,1.0,1.0,1.0,1.0,25.0,,0 days 00:00:00.001000
2023-11-09 13:30:32.694,0.95539075,0.8577453,0.65419734,1.1099904,0.9309786,0.31840533,0.07752053,0.7960613,0.96337736,0.36210188,0.27429977,0.7568343,0.8996642,0.27688798,0.3136539,0.823581,0.63141006,-0.01965925,0.188216,0.83967364,821.1722,831.2454,823.5897,803.0403,650.32965,0.0,0.0,0.42962646484375,0.04388427734375,0.91424560546875,6.213226318359375,-5.420684814453125,4.837493896484375,5147838.827838828,108157802.1978022,59532967.03296703,79.86944,1.0,1.0,1.0,1.0,1.0,25.0,,0 days 00:00:00.001000
2023-11-09 13:30:32.694,0.95539075,0.8577453,0.65419734,1.1099904,0.9309786,0.31840533,0.07752053,0.7960613,0.96337736,0.36210188,0.27429977,0.7568343,0.8996642,0.27688798,0.3136539,0.823581,0.63141006,-0.01965925,0.188216,0.83967364,820.7692,830.4396,817.9487,790.9524,609.2308,0.0,0.0,0.42962646484375,0.04388427734375,0.91424560546875,6.213226318359375,-5.420684814453125,4.837493896484375,5147838.827838828,108157802.1978022,59532967.03296703,79.86944,1.0,1.0,1.0,1.0,1.0,25.0,,0 days 00:00:00
2023-11-09 13:30:32.695,0.95539075,0.8577453,0.65419734,1.1099904,0.9309786,0.31840533,0.07752053,0.7960613,0.96337736,0.36210188,0.27429977,0.7568343,0.8996642,0.27688798,0.3136539,0.823581,0.63141006,-0.01965925,0.188216,0.83967364,822.7839,828.8278,811.50183,779.2674,776.4469,0.0,0.0,0.42962646484375,0.04388427734375,0.91424560546875,6.213226318359375,-5.420684814453125,4.837493896484375,5147838.827838828,108157802.1978022,59532967.03296703,79.86944,1.0,1.0,1.0,1.0,1.0,25.0,,0 days 00:00:00.001000
2023-11-09 13:30:32.695,0.95539075,0.8577453,0.65419734,1.1099904,0.9309786,0.31840533,0.07752053,0.7960613,0.96337736,0.36210188,0.27429977,0.7568343,0.8996642,0.27688798,0.3136539,0.823581,0.63141006,-0.01965925,0.188216,0.83967364,825.2015,834.87177,814.7253,811.0989,869.92676,0.0,0.0,0.42962646484375,0.04388427734375,0.91424560546875,6.213226318359375,-5.420684814453125,4.837493896484375,5147838.827838828,108157802.1978022,59532967.03296703,79.86944,1.0,1.0,1.0,1.0,1.0,25.0,,0 days 00:00:00
2023-11-09 13:30:32.696,0.95539075,0.8577453,0.65419734,1.1099904,0.9309786,0.31840533,0.07752053,0.7960613,0.96337736,0.36210188,0.27429977,0.7568343,0.8996642,0.27688798,0.3136539,0.823581,0.63141006,-0.01965925,0.188216,0.83967364,828.8278,839.707,825.2015,854.21246,813.5165,0.0,0.0,0.42962646484375,0.04388427734375,0.91424560546875,6.213226318359375,-5.420684814453125,4.837493896484375,5147838.827838828,108157802.1978022,59532967.03296703,79.86944,1.0,1.0,1.0,1.0,1.0,25.0,,0 days 00:00:00.001000
2023-11-09 13:30:32.697,0.95539075,0.8577453,0.65419734,1.1099904,0.9309786,0.31840533,0.07752053,0.7960613,0.96337736,0.36210188,0.27429977,0.7568343,0.8996642,0.27688798,0.3136539,0.823581,0.63141006,-0.01965925,0.188216,0.83967364,807.8755,831.6484,830.84247,831.2454,732.1245,0.0,0.0,0.42962646484375,0.04388427734375,0.91424560546875,6.213226318359375,-5.420684814453125,4.837493896484375,5147838.827838828,108157802.1978022,59532967.03296703,79.86944,1.0,1.0,1.0,1.0,1.0,25.0,,0 days 00:00:00.001000
2023-11-09 13:30:32.697,0.95539075,0.8577453,0.65419734,1.1099904,0.9309786,0.31840533,0.07752053,0.7960613,0.96337736,0.36210188,0.27429977,0.7568343,0.8996642,0.27688798,0.3136539,0.823581,0.63141006,-0.01965925,0.188216,0.83967364,798.20514,817.5458,821.5751,794.17584,781.685,0.0,0.0,0.42962646484375,0.04388427734375,0.91424560546875,6.213226318359375,-5.420684814453125,4.837493896484375,5147838.827838828,108157802.1978022,59532967.03296703,79.86944,1.0,1.0,1.0,1.0,1.0,25.0,,0 days 00:00:00
2023-11-09 13:30:32.698,0.95539075,0.8577453,0.65419734,1.1099904,0.9309786,0.31840533,0.07752053,0.7960613,0.96337736,0.36210188,0.27429977,0.7568343,0.8996642,0.27688798,0.3136539,0.823581,0.63141006,-0.01965925,0.188216,0.83967364,790.54944,810.293,815.12823,794.17584,906.1905,0.0,0.0,0.42962646484375,0.04388427734375,0.91424560546875,6.213226318359375,-5.420684814453125,4.837493896484375,5147838.827838828,108157802.1978022,59532967.03296703,79.86944,1.0,1.0,1.0,1.0,1.0,25.0,,0 days 00:00:00.001000
2023-11-09 13:30:32.698,0.95539075,0.8577453,0.65419734,1.1099904,0.9309786,0.31840533,0.07752053,0.7960613,0.96337736,0.36210188,0.27429977,0.7568343,0.8996642,0.27688798,0.3136539,0.823581,0.63141006,-0.01965925,0.188216,0.83967364,808.2784,815.5311,819.15753,789.34064,678.5348,0.0,0.0,0.42962646484375,0.04388427734375,0.91424560546875,6.213226318359375,-5.420684814453125,4.837493896484375,5147838.827838828,108157802.1978022,59532967.03296703,79.86944,1.0,1.0,1.0,1.0,1.0,25.0,,0 days 00:00:00
2023-11-09 13:30:32.699,0.95539075,0.8577453,0.65419734,1.1099904,0.9309786,0.31840533,0.07752053,0.7960613,0.96337736,0.36210188,0.27429977,0.7568343,0.8996642,0.27688798,0.3136539,0.823581,0.63141006,-0.01965925,0.188216,0.83967364,809.4872,808.2784,826.0073,790.14655,599.5604,0.0,0.0,0.42962646484375,0.04388427734375,0.91424560546875,6.213226318359375,-5.420684814453125,4.837493896484375,5147838.827838828,108157802.1978022,59532967.03296703,79.86944,1.0,1.0,1.0,1.0,1.0,25.0,,0 days 00:00:00.001000
2023-11-09 13:30:32.738,0.95539075,0.8577453,0.65419734,1.1099904,0.9309786,0.31840533,0.07752053,0.7960613,0.96337736,0.36210188,0.27429977,0.7568343,0.8996642,0.27688798,0.3136539,0.823581,0.63141006,-0.01965925,0.188216,0.83967364,792.96704,807.8755,826.0073,809.0842,669.2674,0.0,0.0,0.42962646484375,0.04388427734375,0.91424560546875,6.213226318359375,-5.420684814453125,4.837493896484375,5108351.648351648,108207765.56776556,59557142.85714286,79.86944,1.0,1.0,1.0,1.0,1.0,25.0,,0 days 00:00:00.039000
2023-11-09 13:30:32.739,0.9792439,0.87921876,0.68766975,1.1022837,0.9536909,0.3299023,0.08794296,0.7993769,0.96337736,0.36724854,0.27429977,0.7242345,0.88668644,0.27616513,0.31691897,0.80214214,0.63069797,-0.03881949,0.18912867,0.8392744,796.5934,815.12823,819.9634,811.50183,666.4469,0.0,0.0,0.42962646484375,0.04388427734375,0.91424560546875,6.213226318359375,-5.420684814453125,4.837493896484375,5108351.648351648,108207765.56776556,59557142.85714286,79.86944,1.0,1.0,1.0,1.0,1.0,25.0,,0 days 00:00:00.001000
2023-11-09 13:30:32.745,0.9792439,0.87921876,0.68766975,1.1022837,0.9536909,0.3299023,0.08794296,0.7993769,0.96337736,0.36724854,0.27429977,0.7242345,0.88668644,0.27616513,0.31691897,0.80214214,0.63069797,-0.03881949,0.18912867,0.8392744,819.5604,813.91943,831.2454,829.2308,624.1392,0.0,0.0,0.42962646484375,0.04388427734375,0.91424560546875,6.213226318359375,-5.420684814453125,4.837493896484375,5108351.648351648,108207765.56776556,59557142.85714286,79.86944,1.0,1.0,1.0,1.0,1.0,25.0,,0 days 00:00:00.006000
2023-11-09 13:30:32.746,0.9792439,0.87921876,0.68766975,1.1022837,0.9536909,0.3299023,0.08794296,0.7993769,0.96337736,0.36724854,0.27429977,0.7242345,0.88668644,0.27616513,0.31691897,0.80214214,0.63069797,-0.03881949,0.18912867,0.8392744,804.65204,809.89014,833.2601,832.4542,716.4103,0.0,0.0,0.42962646484375,0.04388427734375,0.91424560546875,6.213226318359375,-5.420684814453125,4.837493896484375,5108351.648351648,108207765.56776556,59557142.85714286,79.86944,1.0,1.0,1.0,1.0,1.0,25.0,,0 days 00:00:00.001000
2023-11-09 13:30:32.747,0.9792439,0.87921876,0.68766975,1.1022837,0.9536909,0.3299023,0.08794296,0.7993769,0.96337736,0.36724854,0.27429977,0.7242345,0.88668644,0.27616513,0.31691897,0.80214214,0.63069797,-0.03881949,0.18912867,0.8392744,778.0586,810.293,819.5604,822.7839,816.7399,0.0,0.0,0.42962646484375,0.04388427734375,0.91424560546875,6.213226318359375,-5.420684814453125,4.837493896484375,5108351.648351648,108207765.56776556,59557142.85714286,79.86944,1.0,1.0,1.0,1.0,1.0,25.0,,0 days 00:00:00.001000
2023-11-09 13:30:32.748,0.9792439,0.87921876,0.68766975,1.1022837,0.9536909,0.3299023,0.08794296,0.7993769,0.96337736,0.36724854,0.27429977,0.7242345,0.88668644,0.27616513,0.31691897,0.80214214,0.63069797,-0.03881949,0.18912867,0.8392744,795.78754,813.1135,816.7399,844.5421,776.8498,0.0,0.0,0.42962646484375,0.04388427734375,0.91424560546875,6.213226318359375,-5.420684814453125,4.837493896484375,5108351.648351648,108207765.56776556,59557142.85714286,79.86944,1.0,1.0,1.0,1.0,1.0,25.0,,0 days 00:00:00.001000
2023-11-09 13:30:32.749,0.9792439,0.87921876,0.68766975,1.1022837,0.9536909,0.3299023,0.08794296,0.7993769,0.96337736,0.36724854,0.27429977,0.7242345,0.88668644,0.27616513,0.31691897,0.80214214,0.63069797,-0.03881949,0.18912867,0.8392744,817.9487,816.337,821.5751,823.1868,741.79486,0.0,0.0,0.42962646484375,0.04388427734375,0.91424560546875,6.213226318359375,-5.420684814453125,4.837493896484375,5108351.648351648,108207765.56776556,59557142.85714286,79.86944,1.0,1.0,1.0,1.0,1.0,25.0,,0 days 00:00:00.001000
2023-11-09 13:30:32.749,0.9792439,0.87921876,0.68766975,1.1022837,0.9536909,0.3299023,0.08794296,0.7993769,0.96337736,0.36724854,0.27429977,0.7242345,0.88668644,0.27616513,0.31691897,0.80214214,0.63069797,-0.03881949,0.18912867,0.8392744,824.7985,816.337,817.9487,808.2784,724.4689,0.0,0.0,0.42962646484375,0.04388427734375,0.91424560546875,6.213226318359375,-5.420684814453125,4.837493896484375,5108351.648351648,108207765.56776556,59557142.85714286,79.86944,1.0,1.0,1.0,1.0,1.0,25.0,,0 days 00:00:00
2023-11-09 13:30:32.750,0.9792439,0.87921876,0.68766975,1.1022837,0.9536909,0.3299023,0.08794296,0.7993769,0.96337736,0.36724854,0.27429977,0.7242345,0.88668644,0.27616513,0.31691897,0.80214214,0.63069797,-0.03881949,0.18912867,0.8392744,823.5897,816.337,814.3223,828.4249,847.3626,0.0,0.0,0.42962646484375,0.04388427734375,0.91424560546875,6.213226318359375,-5.420684814453125,4.837493896484375,5108351.648351648,108207765.56776556,59557142.85714286,79.86944,1.0,1.0,1.0,1.0,1.0,25.0,,0 days 00:00:00.001000
2023-11-09 13:30:32.751,0.9792439,0.87921876,0.68766975,1.1022837,0.9536909,0.3299023,0.08794296,0.7993769,0.96337736,0.36724854,0.27429977,0.7242345,0.88668644,0.27616513,0.31691897,0.80214214,0.63069797,-0.03881949,0.18912867,0.8392744,851.39197,830.0366,818.3516,827.2161,790.14655,0.0,0.0,0.42962646484375,0.04388427734375,0.91424560546875,6.213226318359375,-5.420684814453125,4.837493896484375,5108351.648351648,108207765.56776556,59557142.85714286,79.86944,1.0,1.0,1.0,1.0,1.0,25.0,,0 days 00:00:00.001000
2023-11-09 13:30:32.751,0.9792439,0.87921876,0.68766975,1.1022837,0.9536909,0.3299023,0.08794296,0.7993769,0.96337736,0.36724854,0.27429977,0.7242345,0.88668644,0.27616513,0.31691897,0.80214214,0.63069797,-0.03881949,0.18912867,0.8392744,853.00366,832.0513,820.3663,836.8865,652.74725,0.0,0.0,0.42962646484375,0.04388427734375,0.91424560546875,6.213226318359375,-5.420684814453125,4.837493896484375,5108351.648351648,108207765.56776556,59557142.85714286,79.86944,1.0,1.0,1.0,1.0,1.0,25.0,,0 days 00:00:00
2023-11-09 13:30:32.752,0.9792439,0.87921876,0.68766975,1.1022837,0.9536909,0.3299023,0.08794296,0.7993769,0.96337736,0.36724854,0.27429977,0.7242345,0.88668644,0.27616513,0.31691897,0.80214214,0.63069797,-0.03881949,0.18912867,0.8392744,838.9011,828.022,822.381,845.34796,728.0952,0.0,0.0,0.42962646484375,0.04388427734375,0.91424560546875,6.213226318359375,-5.420684814453125,4.837493896484375,5108351.648351648,108207765.56776556,59557142.85714286,79.86944,1.0,1.0,1.0,1.0,1.0,25.0,,0 days 00:00:00.001000
2023-11-09 13:30:32.793,0.9792439,0.87921876,0.68766975,1.1022837,0.9536909,0.3299023,0.08794296,0.7993769,0.96337736,0.36724854,0.27429977,0.7242345,0.88668644,0.27616513,0.31691897,0.80214214,0.63069797,-0.03881949,0.18912867,0.8392744,839.304,826.8132,823.9927,841.7216,756.7033,0.0,0.0,0.3990478515625,0.057373046875,0.920166015625,5.301055908203125,-4.299163818359375,4.418792724609375,5108351.648351648,108207765.56776556,59557142.85714286,79.86944,1.0,1.0,1.0,1.0,1.0,25.0,,0 days 00:00:00.041000
2023-11-09 13:30:32.793,0.9792439,0.87921876,0.68766975,1.1022837,0.9536909,0.3299023,0.08794296,0.7993769,0.96337736,0.36724854,0.27429977,0.7242345,0.88668644,0.27616513,0.31691897,0.80214214,0.63069797,-0.03881949,0.18912867,0.8392744,842.1245,823.5897,819.5604,827.2161,745.0183,0.0,0.0,0.3990478515625,0.057373046875,0.920166015625,5.301055908203125,-4.299163818359375,4.418792724609375,5108351.648351648,108207765.56776556,59557142.85714286,79.86944,1.0,1.0,1.0,1.0,1.0,25.0,,0 days 00:00:00
2023-11-09 13:30:32.794,0.9792439,0.87921876,0.68766975,1.1022837,0.9536909,0.3299023,0.08794296,0.7993769,0.96337736,0.36724854,0.27429977,0.7242345,0.88668644,0.27616513,0.31691897,0.80214214,0.63069797,-0.03881949,0.18912867,0.8392744,839.304,826.4103,816.337,822.381,681.3553,0.0,0.0,0.3990478515625,0.057373046875,0.920166015625,5.301055908203125,-4.299163818359375,4.418792724609375,5108351.648351648,108207765.56776556,59557142.85714286,79.86944,1.0,1.0,1.0,1.0,1.0,25.0,,0 days 00:00:00.001000
2023-11-09 13:30:32.795,0.9792439,0.87921876,0.68766975,1.1022837,0.9536909,0.3299023,0.08794296,0.7993769,0.96337736,0.36724854,0.27429977,0.7242345,0.88668644,0.27616513,0.31691897,0.80214214,0.63069797,-0.03881949,0.18912867,0.8392744,854.21246,825.2015,826.0073,858.6447,796.1905,0.0,0.0,0.3990478515625,0.057373046875,0.920166015625,5.301055908203125,-4.299163818359375,4.418792724609375,5108351.648351648,108207765.56776556,59557142.85714286,79.86944,1.0,1.0,1.0,1.0,1.0,25.0,,0 days 00:00:00.001000
2023-11-09 13:30:32.795,0.9792439,0.87921876,0.68766975,1.1022837,0.9536909,0.3299023,0.08794296,0.7993769,0.96337736,0.36724854,0.27429977,0.7242345,0.88668644,0.27616513,0.31691897,0.80214214,0.63069797,-0.03881949,0.18912867,0.8392744,844.1392,813.1135,827.619,855.82416,860.2564,0.0,0.0,0.3990478515625,0.057373046875,0.920166015625,5.301055908203125,-4.299163818359375,4.418792724609375,5108351.648351648,108207765.56776556,59557142.85714286,79.86944,1.0,1.0,1.0,1.0,1.0,25.0,,0 days 00:00:00
2023-11-09 13:30:32.796,0.9792439,0.87921876,0.68766975,1.1022837,0.9536909,0.3299023,0.08794296,0.7993769,0.96337736,0.36724854,0.27429977,0.7242345,0.88668644,0.27616513,0.31691897,0.80214214,0.63069797,-0.03881949,0.18912867,0.8392744,834.87177,822.7839,820.7692,829.2308,767.1795,0.0,0.0,0.3990478515625,0.057373046875,0.920166015625,5.301055908203125,-4.299163818359375,4.418792724609375,5108351.648351648,108207765.56776556,59557142.85714286,79.86944,1.0,1.0,1.0,1.0,1.0,25.0,,0 days 00:00:00.001000
2023-11-09 13:30:32.796,0.9792439,0.87921876,0.68766975,1.1022837,0.9536909,0.3299023,0.08794296,0.7993769,0.96337736,0.36724854,0.27429977,0.7242345,0.88668644,0.27616513,0.31691897,0.80214214,0.63069797,-0.03881949,0.18912867,0.8392744,838.9011,831.6484,818.7546,817.9487,767.1795,0.0,0.0,0.3990478515625,0.057373046875,0.920166015625,5.301055908203125,-4.299163818359375,4.418792724609375,5108351.648351648,108207765.56776556,59557142.85714286,79.86944,1.0,1.0,1.0,1.0,1.0,25.0,,0 days 00:00:00
2023-11-09 13:30:32.797,0.9792439,0.87921876,0.68766975,1.1022837,0.9536909,0.3299023,0.08794296,0.7993769,0.96337736,0.36724854,0.27429977,0.7242345,0.88668644,0.27616513,0.31691897,0.80214214,0.63069797,-0.03881949,0.18912867,0.8392744,843.73627,820.7692,815.9341,834.0659,866.7033,0.0,0.0,0.3990478515625,0.057373046875,0.920166015625,5.301055908203125,-4.299163818359375,4.418792724609375,5108351.648351648,108207765.56776556,59557142.85714286,79.86944,1.0,1.0,1.0,1.0,1.0,25.0,,0 days 00:00:00.001000
2023-11-09 13:30:32.797,0.9792439,0.87921876,0.68766975,1.1022837,0.9536909,0.3299023,0.08794296,0.7993769,0.96337736,0.36724854,0.27429977,0.7242345,0.88668644,0.27616513,0.31691897,0.80214214,0.63069797,-0.03881949,0.18912867,0.8392744,845.34796,824.3956,818.3516,839.707,983.95605,0.0,0.0,0.3990478515625,0.057373046875,0.920166015625,5.301055908203125,-4.299163818359375,4.418792724609375,5108351.648351648,108207765.56776556,59557142.85714286,79.86944,1.0,1.0,1.0,1.0,1.0,25.0,,0 days 00:00:00
2023-11-09 13:30:32.798,0.9792439,0.87921876,0.68766975,1.1022837,0.9536909,0.3299023,0.08794296,0.7993769,0.96337736,0.36724854,0.27429977,0.7242345,0.88668644,0.27616513,0.31691897,0.80214214,0.63069797,-0.03881949,0.18912867,0.8392744,837.6923,835.6777,824.3956,827.2161,780.4762,0.0,0.0,0.3990478515625,0.057373046875,0.920166015625,5.301055908203125,-4.299163818359375,4.418792724609375,5108351.648351648,108207765.56776556,59557142.85714286,79.86944,1.0,1.0,1.0,1.0,1.0,25.0,,0 days 00:00:00.001000
2023-11-09 13:30:32.798,0.9792439,0.87921876,0.68766975,1.1022837,0.9536909,0.3299023,0.08794296,0.7993769,0.96337736,0.36724854,0.27429977,0.7242345,0.88668644,0.27616513,0.31691897,0.80214214,0.63069797,-0.03881949,0.18912867,0.8392744,845.7509,835.6777,815.12823,825.2015,686.1905,0.0,0.0,0.3990478515625,0.057373046875,0.920166015625,5.301055908203125,-4.299163818359375,4.418792724609375,5108351.648351648,108207765.56776556,59557142.85714286,79.86944,1.0,1.0,1.0,1.0,1.0,25.0,,0 days 00:00:00
2023-11-09 13:30:32.799,0.9792439,0.87921876,0.68766975,1.1022837,0.9536909,0.3299023,0.08794296,0.7993769,0.96337736,0.36724854,0.27429977,0.7242345,0.88668644,0.27616513,0.31691897,0.80214214,0.63069797,-0.03881949,0.18912867,0.8392744,844.94507,834.87177,814.3223,823.9927,720.84247,0.0,0.0,0.3990478515625,0.057373046875,0.920166015625,5.301055908203125,-4.299163818359375,4.418792724609375,5108351.648351648,108207765.56776556,59557142.85714286,79.86944,1.0,1.0,1.0,1.0,1.0,25.0,,0 days 00:00:00.001000
2023-11-09 13:30:32.825,0.9792439,0.87921876,0.68766975,1.1022837,0.9536909,0.3299023,0.08794296,0.7993769,0.96337736,0.36724854,0.27429977,0.7242345,0.88668644,0.27616513,0.31691897,0.80214214,0.63069797,-0.03881949,0.18912867,0.8392744,838.49817,833.2601,821.1722,827.619,713.5897,0.0,0.0,0.416259765625,0.060546875,0.915771484375,3.289794921875,-5.076751708984375,0.082244873046875,5110769.230769231,108262564.1025641,59563589.743589744,79.86944,1.0,1.0,1.0,1.0,1.0,25.0,,0 days 00:00:00.026000
2023-11-09 13:30:32.826,0.9792439,0.87921876,0.68766975,1.1022837,0.9536909,0.3299023,0.08794296,0.7993769,0.96337736,0.36724854,0.27429977,0.7242345,0.88668644,0.27616513,0.31691897,0.80214214,0.63069797,-0.03881949,0.18912867,0.8392744,835.6777,832.8571,825.2015,837.28937,715.2015,0.0,0.0,0.416259765625,0.060546875,0.915771484375,3.289794921875,-5.076751708984375,0.082244873046875,5110769.230769231,108262564.1025641,59563589.743589744,79.86944,1.0,1.0,1.0,1.0,1.0,25.0,,0 days 00:00:00.001000
2023-11-09 13:30:32.827,0.9792439,0.87921876,0.68766975,1.1022837,0.9536909,0.3299023,0.08794296,0.7993769,0.96337736,0.36724854,0.27429977,0.7242345,0.88668644,0.27616513,0.31691897,0.80214214,0.63069797,-0.03881949,0.18912867,0.8392744,826.4103,824.7985,817.5458,837.6923,702.3077,0.0,0.0,0.416259765625,0.060546875,0.915771484375,3.289794921875,-5.076751708984375,0.082244873046875,5110769.230769231,108262564.1025641,59563589.743589744,79.86944,1.0,1.0,1.0,1.0,1.0,25.0,,0 days 00:00:00.001000
2023-11-09 13:30:32.828,1.0099277,0.89153695,0.72400236,1.0920774,0.9764187,0.31942114,0.091887794,0.82002395,0.96337736,0.38302067,0.27429977,0.68034256,0.86116064,0.26631305,0.32511747,0.7710554,0.6284694,-0.0589526,0.18102704,0.8319633,858.6447,823.1868,812.71063,829.2308,703.5165,0.0,0.0,0.416259765625,0.060546875,0.915771484375,3.289794921875,-5.076751708984375,0.082244873046875,5110769.230769231,108262564.1025641,59563589.743589744,79.86944,1.0,1.0,1.0,1.0,1.0,25.0,,0 days 00:00:00.001000
2023-11-09 13:30:32.831,1.0099277,0.89153695,0.72400236,1.0920774,0.9764187,0.31942114,0.091887794,0.82002395,0.96337736,0.38302067,0.27429977,0.68034256,0.86116064,0.26631305,0.32511747,0.7710554,0.6284694,-0.0589526,0.18102704,0.8319633,872.3443,830.0366,823.9927,844.5421,735.34796,0.0,0.0,0.416259765625,0.060546875,0.915771484375,3.289794921875,-5.076751708984375,0.082244873046875,5110769.230769231,108262564.1025641,59563589.743589744,79.86944,1.0,1.0,1.0,1.0,1.0,25.0,,0 days 00:00:00.003000
2023-11-09 13:30:32.832,1.0099277,0.89153695,0.72400236,1.0920774,0.9764187,0.31942114,0.091887794,0.82002395,0.96337736,0.38302067,0.27429977,0.68034256,0.86116064,0.26631305,0.32511747,0.7710554,0.6284694,-0.0589526,0.18102704,0.8319633,832.8571,824.7985,819.5604,826.4103,799.011,0.0,0.0,0.416259765625,0.060546875,0.915771484375,3.289794921875,-5.076751708984375,0.082244873046875,5110769.230769231,108262564.1025641,59563589.743589744,79.86944,1.0,1.0,1.0,1.0,1.0,25.0,,0 days 00:00:00.001000
2023-11-09 13:30:32.832,1.0099277,0.89153695,0.72400236,1.0920774,0.9764187,0.31942114,0.091887794,0.82002395,0.96337736,0.38302067,0.27429977,0.68034256,0.86116064,0.26631305,0.32511747,0.7710554,0.6284694,-0.0589526,0.18102704,0.8319633,813.91943,821.978,809.89014,807.8755,824.3956,0.0,0.0,0.416259765625,0.060546875,0.915771484375,3.289794921875,-5.076751708984375,0.082244873046875,5110769.230769231,108262564.1025641,59563589.743589744,79.86944,1.0,1.0,1.0,1.0,1.0,25.0,,0 days 00:00:00
2023-11-09 13:30:32.833,1.0099277,0.89153695,0.72400236,1.0920774,0.9764187,0.31942114,0.091887794,0.82002395,0.96337736,0.38302067,0.27429977,0.68034256,0.86116064,0.26631305,0.32511747,0.7710554,0.6284694,-0.0589526,0.18102704,0.8319633,827.2161,813.5165,813.1135,844.94507,921.9048,0.0,0.0,0.416259765625,0.060546875,0.915771484375,3.289794921875,-5.076751708984375,0.082244873046875,5110769.230769231,108262564.1025641,59563589.743589744,79.86944,1.0,1.0,1.0,1.0,1.0,25.0,,0 days 00:00:00.001000
2023-11-09 13:30:32.833,1.0099277,0.89153695,0.72400236,1.0920774,0.9764187,0.31942114,0.091887794,0.82002395,0.96337736,0.38302067,0.27429977,0.68034256,0.86116064,0.26631305,0.32511747,0.7710554,0.6284694,-0.0589526,0.18102704,0.8319633,835.6777,820.7692,823.9927,827.2161,823.1868,0.0,0.0,0.416259765625,0.060546875,0.915771484375,3.289794921875,-5.076751708984375,0.082244873046875,5110769.230769231,108262564.1025641,59563589.743589744,79.86944,1.0,1.0,1.0,1.0,1.0,25.0,,0 days 00:00:00
2023-11-09 13:30:32.833,1.0099277,0.89153695,0.72400236,1.0920774,0.9764187,0.31942114,0.091887794,0.82002395,0.96337736,0.38302067,0.27429977,0.68034256,0.86116064,0.26631305,0.32511747,0.7710554,0.6284694,-0.0589526,0.18102704,0.8319633,836.8865,825.6044,826.0073,799.41394,633.8095,0.0,0.0,0.416259765625,0.060546875,0.915771484375,3.289794921875,-5.076751708984375,0.082244873046875,5110769.230769231,108262564.1025641,59563589.743589744,79.86944,1.0,1.0,1.0,1.0,1.0,25.0,,0 days 00:00:00
2023-11-09 13:30:32.834,1.0099277,0.89153695,0.72400236,1.0920774,0.9764187,0.31942114,0.091887794,0.82002395,0.96337736,0.38302067,0.27429977,0.68034256,0.86116064,0.26631305,0.32511747,0.7710554,0.6284694,-0.0589526,0.18102704,0.8319633,822.7839,818.7546,818.3516,834.0659,685.38464,0.0,0.0,0.416259765625,0.060546875,0.915771484375,3.289794921875,-5.076751708984375,0.082244873046875,5110769.230769231,108262564.1025641,59563589.743589744,79.86944,1.0,1.0,1.0,1.0,1.0,25.0,,0 days 00:00:00.001000
2023-11-09 13:30:32.834,1.0099277,0.89153695,0.72400236,1.0920774,0.9764187,0.31942114,0.091887794,0.82002395,0.96337736,0.38302067,0.27429977,0.68034256,0.86116064,0.26631305,0.32511747,0.7710554,0.6284694,-0.0589526,0.18102704,0.8319633,799.011,820.3663,817.1429,847.3626,696.6667,0.0,0.0,0.416259765625,0.060546875,0.915771484375,3.289794921875,-5.076751708984375,0.082244873046875,5110769.230769231,108262564.1025641,59563589.743589744,79.86944,1.0,1.0,1.0,1.0,1.0,25.0,,0 days 00:00:00
2023-11-09 13:30:32.872,1.0099277,0.89153695,0.72400236,1.0920774,0.9764187,0.31942114,0.091887794,0.82002395,0.96337736,0.38302067,0.27429977,0.68034256,0.86116064,0.26631305,0.32511747,0.7710554,0.6284694,-0.0589526,0.18102704,0.8319633,816.337,822.381,825.6044,824.7985,658.7912,0.0,0.0,0.40704345703125,0.0430908203125,0.9219970703125,1.861724853515625,-3.51409912109375,-0.059814453125,5110769.230769231,108262564.1025641,59563589.743589744,79.86944,1.0,1.0,1.0,1.0,1.0,25.0,,0 days 00:00:00.038000
2023-11-09 13:30:32.872,1.0099277,0.89153695,0.72400236,1.0920774,0.9764187,0.31942114,0.091887794,0.82002395,0.96337736,0.38302067,0.27429977,0.68034256,0.86116064,0.26631305,0.32511747,0.7710554,0.6284694,-0.0589526,0.18102704,0.8319633,856.2271,826.0073,834.4689,822.7839,628.1685,0.0,0.0,0.40704345703125,0.0430908203125,0.9219970703125,1.861724853515625,-3.51409912109375,-0.059814453125,5110769.230769231,108262564.1025641,59563589.743589744,79.86944,1.0,1.0,1.0,1.0,1.0,25.0,,0 days 00:00:00
2023-11-09 13:30:32.873,1.0099277,0.89153695,0.72400236,1.0920774,0.9764187,0.31942114,0.091887794,0.82002395,0.96337736,0.38302067,0.27429977,0.68034256,0.86116064,0.26631305,0.32511747,0.7710554,0.6284694,-0.0589526,0.18102704,0.8319633,860.65936,819.9634,835.2747,854.21246,749.45056,0.0,0.0,0.40704345703125,0.0430908203125,0.9219970703125,1.861724853515625,-3.51409912109375,-0.059814453125,5110769.230769231,108262564.1025641,59563589.743589744,79.86944,1.0,1.0,1.0,1.0,1.0,25.0,,0 days 00:00:00.001000
2023-11-09 13:30:32.874,1.0099277,0.89153695,0.72400236,1.0920774,0.9764187,0.31942114,0.091887794,0.82002395,0.96337736,0.38302067,0.27429977,0.68034256,0.86116064,0.26631305,0.32511747,0.7710554,0.6284694,-0.0589526,0.18102704,0.8319633,837.6923,824.3956,824.7985,856.63007,867.1062,0.0,0.0,0.40704345703125,0.0430908203125,0.9219970703125,1.861724853515625,-3.51409912109375,-0.059814453125,5110769.230769231,108262564.1025641,59563589.743589744,79.86944,1.0,1.0,1.0,1.0,1.0,25.0,,0 days 00:00:00.001000
2023-11-09 13:30:32.874,1.0099277,0.89153695,0.72400236,1.0920774,0.9764187,0.31942114,0.091887794,0.82002395,0.96337736,0.38302067,0.27429977,0.68034256,0.86116064,0.26631305,0.32511747,0.7710554,0.6284694,-0.0589526,0.18102704,0.8319633,837.6923,830.84247,821.5751,828.4249,731.31866,0.0,0.0,0.40704345703125,0.0430908203125,0.9219970703125,1.861724853515625,-3.51409912109375,-0.059814453125,5110769.230769231,108262564.1025641,59563589.743589744,79.86944,1.0,1.0,1.0,1.0,1.0,25.0,,0 days 00:00:00
2023-11-09 13:30:32.875,1.0099277,0.89153695,0.72400236,1.0920774,0.9764187,0.31942114,0.091887794,0.82002395,0.96337736,0.38302067,0.27429977,0.68034256,0.86116064,0.26631305,0.32511747,0.7710554,0.6284694,-0.0589526,0.18102704,0.8319633,854.21246,825.2015,821.1722,834.87177,687.3993,0.0,0.0,0.40704345703125,0.0430908203125,0.9219970703125,1.861724853515625,-3.51409912109375,-0.059814453125,5110769.230769231,108262564.1025641,59563589.743589744,79.86944,1.0,1.0,1.0,1.0,1.0,25.0,,0 days 00:00:00.001000
2023-11-09 13:30:32.875,1.0099277,0.89153695,0.72400236,1.0920774,0.9764187,0.31942114,0.091887794,0.82002395,0.96337736,0.38302067,0.27429977,0.68034256,0.86116064,0.26631305,0.32511747,0.7710554,0.6284694,-0.0589526,0.18102704,0.8319633,873.1502,823.9927,820.3663,840.5128,923.1135,0.0,0.0,0.40704345703125,0.0430908203125,0.9219970703125,1.861724853515625,-3.51409912109375,-0.059814453125,5110769.230769231,108262564.1025641,59563589.743589744,79.86944,1.0,1.0,1.0,1.0,1.0,25.0,,0 days 00:00:00
2023-11-09 13:30:32.875,1.0099277,0.89153695,0.72400236,1.0920774,0.9764187,0.31942114,0.091887794,0.82002395,0.96337736,0.38302067,0.27429977,0.68034256,0.86116064,0.26631305,0.32511747,0.7710554,0.6284694,-0.0589526,0.18102704,0.8319633,835.2747,821.1722,826.8132,835.2747,1004.90845,0.0,0.0,0.40704345703125,0.0430908203125,0.9219970703125,1.861724853515625,-3.51409912109375,-0.059814453125,5110769.230769231,108262564.1025641,59563589.743589744,79.86944,1.0,1.0,1.0,1.0,1.0,25.0,,0 days 00:00:00
2023-11-09 13:30:32.876,1.0099277,0.89153695,0.72400236,1.0920774,0.9764187,0.31942114,0.091887794,0.82002395,0.96337736,0.38302067,0.27429977,0.68034256,0.86116064,0.26631305,0.32511747,0.7710554,0.6284694,-0.0589526,0.18102704,0.8319633,844.5421,828.022,823.5897,817.5458,691.02563,0.0,0.0,0.40704345703125,0.0430908203125,0.9219970703125,1.861724853515625,-3.51409912109375,-0.059814453125,5110769.230769231,108262564.1025641,59563589.743589744,79.86944,1.0,1.0,1.0,1.0,1.0,25.0,,0 days 00:00:00.001000
2023-11-09 13:30:32.876,1.0099277,0.89153695,0.72400236,1.0920774,0.9764187,0.31942114,0.091887794,0.82002395,0.96337736,0.38302067,0.27429977,0.68034256,0.86116064,0.26631305,0.32511747,0.7710554,0.6284694,-0.0589526,0.18102704,0.8319633,846.9597,825.2015,820.3663,828.022,608.022,0.0,0.0,0.40704345703125,0.0430908203125,0.9219970703125,1.861724853515625,-3.51409912109375,-0.059814453125,5110769.230769231,108262564.1025641,59563589.743589744,79.86944,1.0,1.0,1.0,1.0,1.0,25.0,,0 days 00:00:00
2023-11-09 13:30:32.877,1.0099277,0.89153695,0.72400236,1.0920774,0.9764187,0.31942114,0.091887794,0.82002395,0.96337736,0.38302067,0.27429977,0.68034256,0.86116064,0.26631305,0.32511747,0.7710554,0.6284694,-0.0589526,0.18102704,0.8319633,797.3993,819.5604,830.84247,831.6484,667.25275,0.0,0.0,0.40704345703125,0.0430908203125,0.9219970703125,1.861724853515625,-3.51409912109375,-0.059814453125,5110769.230769231,108262564.1025641,59563589.743589744,79.86944,1.0,1.0,1.0,1.0,1.0,25.0,,0 days 00:00:00.001000
2023-11-09 13:30:32.877,1.0099277,0.89153695,0.72400236,1.0920774,0.9764187,0.31942114,0.091887794,0.82002395,0.96337736,0.38302067,0.27429977,0.68034256,0.86116064,0.26631305,0.32511747,0.7710554,0.6284694,-0.0589526,0.18102704,0.8319633,813.1135,821.978,831.6484,807.0696,678.5348,0.0,0.0,0.40704345703125,0.0430908203125,0.9219970703125,1.861724853515625,-3.51409912109375,-0.059814453125,5110769.230769231,108262564.1025641,59563589.743589744,79.86944,1.0,1.0,1.0,1.0,1.0,25.0,,0 days 00:00:00
2023-11-09 13:30:32.936,1.0099277,0.89153695,0.72400236,1.0920774,0.9764187,0.31942114,0.091887794,0.82002395,0.96337736,0.38302067,0.27429977,0.68034256,0.86116064,0.26631305,0.32511747,0.7710554,0.6284694,-0.0589526,0.18102704,0.8319633,857.4359,835.6777,826.4103,805.8608,678.1319,0.0,0.0,0.386962890625,0.0511474609375,0.912109375,2.773895263671875,-6.86370849609375,2.51220703125,5167985.347985348,108222271.06227106,59512014.65201465,79.86944,1.0,1.0,1.0,1.0,1.0,25.0,,0 days 00:00:00.059000
2023-11-09 13:30:32.937,1.0099277,0.89153695,0.72400236,1.0920774,0.9764187,0.31942114,0.091887794,0.82002395,0.96337736,0.38302067,0.27429977,0.68034256,0.86116064,0.26631305,0.32511747,0.7710554,0.6284694,-0.0589526,0.18102704,0.8319633,873.1502,842.9304,837.6923,822.7839,691.02563,0.0,0.0,0.386962890625,0.0511474609375,0.912109375,2.773895263671875,-6.86370849609375,2.51220703125,5167985.347985348,108222271.06227106,59512014.65201465,79.86944,1.0,1.0,1.0,1.0,1.0,25.0,,0 days 00:00:00.001000
2023-11-09 13:30:32.937,1.0099277,0.89153695,0.72400236,1.0920774,0.9764187,0.31942114,0.091887794,0.82002395,0.96337736,0.38302067,0.27429977,0.68034256,0.86116064,0.26631305,0.32511747,0.7710554,0.6284694,-0.0589526,0.18102704,0.8319633,832.0513,828.8278,841.31866,838.0952,728.9011,0.0,0.0,0.386962890625,0.0511474609375,0.912109375,2.773895263671875,-6.86370849609375,2.51220703125,5167985.347985348,108222271.06227106,59512014.65201465,79.86944,1.0,1.0,1.0,1.0,1.0,25.0,,0 days 00:00:00
2023-11-09 13:30:32.938,1.0099277,0.89153695,0.72400236,1.0920774,0.9764187,0.31942114,0.091887794,0.82002395,0.96337736,0.38302067,0.27429977,0.68034256,0.86116064,0.26631305,0.32511747,0.7710554,0.6284694,-0.0589526,0.18102704,0.8319633,803.8461,822.7839,818.3516,805.05493,738.97437,0.0,0.0,0.386962890625,0.0511474609375,0.912109375,2.773895263671875,-6.86370849609375,2.51220703125,5167985.347985348,108222271.06227106,59512014.65201465,79.86944,1.0,1.0,1.0,1.0,1.0,25.0,,0 days 00:00:00.001000
2023-11-09 13:30:32.938,1.0099277,0.89153695,0.72400236,1.0920774,0.9764187,0.31942114,0.091887794,0.82002395,0.96337736,0.38302067,0.27429977,0.68034256,0.86116064,0.26631305,0.32511747,0.7710554,0.6284694,-0.0589526,0.18102704,0.8319633,813.91943,821.978,803.8461,805.4579,743.8095,0.0,0.0,0.386962890625,0.0511474609375,0.912109375,2.773895263671875,-6.86370849609375,2.51220703125,5167985.347985348,108222271.06227106,59512014.65201465,79.86944,1.0,1.0,1.0,1.0,1.0,25.0,,0 days 00:00:00
2023-11-09 13:30:32.939,1.042367,0.8893324,0.7708032,1.062167,1.00159,0.29211792,0.105746165,0.8421203,0.96337736,0.41292226,0.35207585,0.657527,0.83000726,0.2584371,0.3424679,0.7385344,0.62411666,-0.07516134,0.16707373,0.8162547,814.3223,814.3223,814.3223,830.4396,762.3443,0.0,0.0,0.386962890625,0.0511474609375,0.912109375,2.773895263671875,-6.86370849609375,2.51220703125,5167985.347985348,108222271.06227106,59512014.65201465,79.86944,1.0,1.0,1.0,1.0,1.0,25.0,,0 days 00:00:00.001000
2023-11-09 13:30:32.942,1.042367,0.8893324,0.7708032,1.062167,1.00159,0.29211792,0.105746165,0.8421203,0.96337736,0.41292226,0.35207585,0.657527,0.83000726,0.2584371,0.3424679,0.7385344,0.62411666,-0.07516134,0.16707373,0.8162547,824.3956,817.5458,816.337,813.5165,970.65936,0.0,0.0,0.386962890625,0.0511474609375,0.912109375,2.773895263671875,-6.86370849609375,2.51220703125,5167985.347985348,108222271.06227106,59512014.65201465,79.86944,1.0,1.0,1.0,1.0,1.0,25.0,,0 days 00:00:00.003000
2023-11-09 13:30:32.942,1.042367,0.8893324,0.7708032,1.062167,1.00159,0.29211792,0.105746165,0.8421203,0.96337736,0.41292226,0.35207585,0.657527,0.83000726,0.2584371,0.3424679,0.7385344,0.62411666,-0.07516134,0.16707373,0.8162547,832.8571,831.6484,810.696,789.7436,955.7509,0.0,0.0,0.386962890625,0.0511474609375,0.912109375,2.773895263671875,-6.86370849609375,2.51220703125,5167985.347985348,108222271.06227106,59512014.65201465,79.86944,1.0,1.0,1.0,1.0,1.0,25.0,,0 days 00:00:00
2023-11-09 13:30:32.943,1.042367,0.8893324,0.7708032,1.062167,1.00159,0.29211792,0.105746165,0.8421203,0.96337736,0.41292226,0.35207585,0.657527,0.83000726,0.2584371,0.3424679,0.7385344,0.62411666,-0.07516134,0.16707373,0.8162547,823.1868,827.619,831.2454,796.99634,686.99634,0.0,0.0,0.386962890625,0.0511474609375,0.912109375,2.773895263671875,-6.86370849609375,2.51220703125,5167985.347985348,108222271.06227106,59512014.65201465,79.86944,1.0,1.0,1.0,1.0,1.0,25.0,,0 days 00:00:00.001000
2023-11-09 13:30:32.943,1.042367,0.8893324,0.7708032,1.062167,1.00159,0.29211792,0.105746165,0.8421203,0.96337736,0.41292226,0.35207585,0.657527,0.83000726,0.2584371,0.3424679,0.7385344,0.62411666,-0.07516134,0.16707373,0.8162547,826.8132,819.9634,837.28937,800.6227,682.5641,0.0,0.0,0.386962890625,0.0511474609375,0.912109375,2.773895263671875,-6.86370849609375,2.51220703125,5167985.347985348,108222271.06227106,59512014.65201465,79.86944,1.0,1.0,1.0,1.0,1.0,25.0,,0 days 00:00:00
2023-11-09 13:30:32.944,1.042367,0.8893324,0.7708032,1.062167,1.00159,0.29211792,0.105746165,0.8421203,0.96337736,0.41292226,0.35207585,0.657527,0.83000726,0.2584371,0.3424679,0.7385344,0.62411666,-0.07516134,0.16707373,0.8162547,828.8278,830.84247,829.6337,805.05493,749.85345,0.0,0.0,0.386962890625,0.0511474609375,0.912109375,2.773895263671875,-6.86370849609375,2.51220703125,5167985.347985348,108222271.06227106,59512014.65201465,79.86944,1.0,1.0,1.0,1.0,1.0,25.0,,0 days 00:00:00.001000
2023-11-09 13:30:32.944,1.042367,0.8893324,0.7708032,1.062167,1.00159,0.29211792,0.105746165,0.8421203,0.96337736,0.41292226,0.35207585,0.657527,0.83000726,0.2584371,0.3424679,0.7385344,0.62411666,-0.07516134,0.16707373,0.8162547,819.15753,840.9158,833.2601,797.3993,741.39197,0.0,0.0,0.386962890625,0.0511474609375,0.912109375,2.773895263671875,-6.86370849609375,2.51220703125,5167985.347985348,108222271.06227106,59512014.65201465,79.86944,1.0,1.0,1.0,1.0,1.0,25.0,,0 days 00:00:00
2023-11-09 13:30:32.965,1.042367,0.8893324,0.7708032,1.062167,1.00159,0.29211792,0.105746165,0.8421203,0.96337736,0.41292226,0.35207585,0.657527,0.83000726,0.2584371,0.3424679,0.7385344,0.62411666,-0.07516134,0.16707373,0.8162547,796.5934,837.28937,830.84247,794.17584,705.12823,0.0,0.0,0.386962890625,0.0511474609375,0.912109375,2.773895263671875,-6.86370849609375,2.51220703125,5167985.347985348,108222271.06227106,59512014.65201465,79.86944,1.0,1.0,1.0,1.0,1.0,25.0,,0 days 00:00:00.021000
2023-11-09 13:30:32.965,1.042367,0.8893324,0.7708032,1.062167,1.00159,0.29211792,0.105746165,0.8421203,0.96337736,0.41292226,0.35207585,0.657527,0.83000726,0.2584371,0.3424679,0.7385344,0.62411666,-0.07516134,0.16707373,0.8162547,801.4286,833.2601,830.0366,815.12823,845.7509,0.0,0.0,0.386962890625,0.0511474609375,0.912109375,2.773895263671875,-6.86370849609375,2.51220703125,5167985.347985348,108222271.06227106,59512014.65201465,79.86944,1.0,1.0,1.0,1.0,1.0,25.0,,0 days 00:00:00
2023-11-09 13:30:32.966,1.042367,0.8893324,0.7708032,1.062167,1.00159,0.29211792,0.105746165,0.8421203,0.96337736,0.41292226,0.35207585,0.657527,0.83000726,0.2584371,0.3424679,0.7385344,0.62411666,-0.07516134,0.16707373,0.8162547,822.381,835.2747,830.4396,827.619,969.0476,0.0,0.0,0.386962890625,0.0511474609375,0.912109375,2.773895263671875,-6.86370849609375,2.51220703125,5167985.347985348,108222271.06227106,59512014.65201465,79.86944,1.0,1.0,1.0,1.0,1.0,25.0,,0 days 00:00:00.001000
2023-11-09 13:30:32.966,1.042367,0.8893324,0.7708032,1.062167,1.00159,0.29211792,0.105746165,0.8421203,0.96337736,0.41292226,0.35207585,0.657527,0.83000726,0.2584371,0.3424679,0.7385344,0.62411666,-0.07516134,0.16707373,0.8162547,826.8132,836.4835,838.9011,820.7692,809.4872,0.0,0.0,0.386962890625,0.0511474609375,0.912109375,2.773895263671875,-6.86370849609375,2.51220703125,5167985.347985348,108222271.06227106,59512014.65201465,79.86944,1.0,1.0,1.0,1.0,1.0,25.0,,0 days 00:00:00
2023-11-09 13:30:32.967,1.042367,0.8893324,0.7708032,1.062167,1.00159,0.29211792,0.105746165,0.8421203,0.96337736,0.41292226,0.35207585,0.657527,0.83000726,0.2584371,0.3424679,0.7385344,0.62411666,-0.07516134,0.16707373,0.8162547,815.9341,833.2601,845.34796,819.9634,733.3333,0.0,0.0,0.386962890625,0.0511474609375,0.912109375,2.773895263671875,-6.86370849609375,2.51220703125,5167985.347985348,108222271.06227106,59512014.65201465,79.86944,1.0,1.0,1.0,1.0,1.0,25.0,,0 days 00:00:00.001000
2023-11-09 13:30:32.967,1.042367,0.8893324,0.7708032,1.062167,1.00159,0.29211792,0.105746165,0.8421203,0.96337736,0.41292226,0.35207585,0.657527,0.83000726,0.2584371,0.3424679,0.7385344,0.62411666,-0.07516134,0.16707373,0.8162547,809.0842,828.8278,842.1245,849.3773,927.9487,0.0,0.0,0.386962890625,0.0511474609375,0.912109375,2.773895263671875,-6.86370849609375,2.51220703125,5167985.347985348,108222271.06227106,59512014.65201465,79.86944,1.0,1.0,1.0,1.0,1.0,25.0,,0 days 00:00:00
2023-11-09 13:30:32.967,1.042367,0.8893324,0.7708032,1.062167,1.00159,0.29211792,0.105746165,0.8421203,0.96337736,0.41292226,0.35207585,0.657527,0.83000726,0.2584371,0.3424679,0.7385344,0.62411666,-0.07516134,0.16707373,0.8162547,820.3663,832.4542,838.9011,834.0659,1037.1428,0.0,0.0,0.386962890625,0.0511474609375,0.912109375,2.773895263671875,-6.86370849609375,2.51220703125,5167985.347985348,108222271.06227106,59512014.65201465,79.86944,1.0,1.0,1.0,1.0,1.0,25.0,,0 days 00:00:00
2023-11-09 13:30:32.968,1.042367,0.8893324,0.7708032,1.062167,1.00159,0.29211792,0.105746165,0.8421203,0.96337736,0.41292226,0.35207585,0.657527,0.83000726,0.2584371,0.3424679,0.7385344,0.62411666,-0.07516134,0.16707373,0.8162547,824.7985,843.3333,846.9597,806.26373,766.3736,0.0,0.0,0.386962890625,0.0511474609375,0.912109375,2.773895263671875,-6.86370849609375,2.51220703125,5167985.347985348,108222271.06227106,59512014.65201465,79.86944,1.0,1.0,1.0,1.0,1.0,25.0,,0 days 00:00:00.001000
2023-11-09 13:30:32.968,1.042367,0.8893324,0.7708032,1.062167,1.00159,0.29211792,0.105746165,0.8421203,0.96337736,0.41292226,0.35207585,0.657527,0.83000726,0.2584371,0.3424679,0.7385344,0.62411666,-0.07516134,0.16707373,0.8162547,817.5458,834.0659,846.1539,813.91943,612.4542,0.0,0.0,0.386962890625,0.0511474609375,0.912109375,2.773895263671875,-6.86370849609375,2.51220703125,5167985.347985348,108222271.06227106,59512014.65201465,79.86944,1.0,1.0,1.0,1.0,1.0,25.0,,0 days 00:00:00
2023-11-09 13:30:32.968,1.042367,0.8893324,0.7708032,1.062167,1.00159,0.29211792,0.105746165,0.8421203,0.96337736,0.41292226,0.35207585,0.657527,0.83000726,0.2584371,0.3424679,0.7385344,0.62411666,-0.07516134,0.16707373,0.8162547,821.5751,830.4396,843.73627,821.978,674.90845,0.0,0.0,0.386962890625,0.0511474609375,0.912109375,2.773895263671875,-6.86370849609375,2.51220703125,5167985.347985348,108222271.06227106,59512014.65201465,79.86944,1.0,1.0,1.0,1.0,1.0,25.0,,0 days 00:00:00
2023-11-09 13:30:32.969,1.042367,0.8893324,0.7708032,1.062167,1.00159,0.29211792,0.105746165,0.8421203,0.96337736,0.41292226,0.35207585,0.657527,0.83000726,0.2584371,0.3424679,0.7385344,0.62411666,-0.07516134,0.16707373,0.8162547,823.5897,832.8571,843.73627,806.6667,694.65204,0.0,0.0,0.386962890625,0.0511474609375,0.912109375,2.773895263671875,-6.86370849609375,2.51220703125,5167985.347985348,108222271.06227106,59512014.65201465,79.86944,1.0,1.0,1.0,1.0,1.0,25.0,,0 days 00:00:00.001000
2023-11-09 13:30:32.969,1.042367,0.8893324,0.7708032,1.062167,1.00159,0.29211792,0.105746165,0.8421203,0.96337736,0.41292226,0.35207585,0.657527,0.83000726,0.2584371,0.3424679,0.7385344,0.62411666,-0.07516134,0.16707373,0.8162547,811.9048,826.4103,839.304,798.20514,613.2601,0.0,0.0,0.386962890625,0.0511474609375,0.912109375,2.773895263671875,-6.86370849609375,2.51220703125,5167985.347985348,108222271.06227106,59512014.65201465,79.86944,1.0,1.0,1.0,1.0,1.0,25.0,,0 days 00:00:00
2023-11-09 13:30:33.037,1.042367,0.8893324,0.7708032,1.062167,1.00159,0.29211792,0.105746165,0.8421203,0.96337736,0.41292226,0.35207585,0.657527,0.83000726,0.2584371,0.3424679,0.7385344,0.62411666,-0.07516134,0.16707373,0.8162547,815.12823,834.4689,830.84247,799.011,704.7253,0.0,0.0,0.4161376953125,0.0478515625,0.9158935546875,2.549591064453125,-7.7459716796875,0.5084228515625,5193772.893772894,108069963.36996336,59462051.28205128,79.86944,1.0,1.0,1.0,1.0,1.0,25.0,,0 days 00:00:00.068000
2023-11-09 13:30:33.038,1.042367,0.8893324,0.7708032,1.062167,1.00159,0.29211792,0.105746165,0.8421203,0.96337736,0.41292226,0.35207585,0.657527,0.83000726,0.2584371,0.3424679,0.7385344,0.62411666,-0.07516134,0.16707373,0.8162547,811.0989,834.0659,839.304,816.337,762.3443,0.0,0.0,0.4161376953125,0.0478515625,0.9158935546875,2.549591064453125,-7.7459716796875,0.5084228515625,5193772.893772894,108069963.36996336,59462051.28205128,79.86944,1.0,1.0,1.0,1.0,1.0,25.0,,0 days 00:00:00.001000
2023-11-09 13:30:33.038,1.042367,0.8893324,0.7708032,1.062167,1.00159,0.29211792,0.105746165,0.8421203,0.96337736,0.41292226,0.35207585,0.657527,0.83000726,0.2584371,0.3424679,0.7385344,0.62411666,-0.07516134,0.16707373,0.8162547,828.8278,836.4835,840.5128,827.2161,693.0403,0.0,0.0,0.4161376953125,0.0478515625,0.9158935546875,2.549591064453125,-7.7459716796875,0.5084228515625,5193772.893772894,108069963.36996336,59462051.28205128,79.86944,1.0,1.0,1.0,1.0,1.0,25.0,,0 days 00:00:00
2023-11-09 13:30:33.039,1.042367,0.8893324,0.7708032,1.062167,1.00159,0.29211792,0.105746165,0.8421203,0.96337736,0.41292226,0.35207585,0.657527,0.83000726,0.2584371,0.3424679,0.7385344,0.62411666,-0.07516134,0.16707373,0.8162547,838.9011,843.73627,840.5128,817.5458,691.02563,0.0,0.0,0.4161376953125,0.0478515625,0.9158935546875,2.549591064453125,-7.7459716796875,0.5084228515625,5193772.893772894,108069963.36996336,59462051.28205128,79.86944,1.0,1.0,1.0,1.0,1.0,25.0,,0 days 00:00:00.001000
2023-11-09 13:30:33.039,1.042367,0.8893324,0.7708032,1.062167,1.00159,0.29211792,0.105746165,0.8421203,0.96337736,0.41292226,0.35207585,0.657527,0.83000726,0.2584371,0.3424679,0.7385344,0.62411666,-0.07516134,0.16707373,0.8162547,831.2454,830.4396,843.73627,820.3663,698.2784,0.0,0.0,0.4161376953125,0.0478515625,0.9158935546875,2.549591064453125,-7.7459716796875,0.5084228515625,5193772.893772894,108069963.36996336,59462051.28205128,79.86944,1.0,1.0,1.0,1.0,1.0,25.0,,0 days 00:00:00
2023-11-09 13:30:33.040,1.042367,0.8893324,0.7708032,1.062167,1.00159,0.29211792,0.105746165,0.8421203,0.96337736,0.41292226,0.35207585,0.657527,0.83000726,0.2584371,0.3424679,0.7385344,0.62411666,-0.07516134,0.16707373,0.8162547,826.0073,826.4103,840.9158,827.2161,779.2674,0.0,0.0,0.4161376953125,0.0478515625,0.9158935546875,2.549591064453125,-7.7459716796875,0.5084228515625,5193772.893772894,108069963.36996336,59462051.28205128,79.86944,1.0,1.0,1.0,1.0,1.0,25.0,,0 days 00:00:00.001000
2023-11-09 13:30:33.040,1.042367,0.8893324,0.7708032,1.062167,1.00159,0.29211792,0.105746165,0.8421203,0.96337736,0.41292226,0.35207585,0.657527,0.83000726,0.2584371,0.3424679,0.7385344,0.62411666,-0.07516134,0.16707373,0.8162547,815.5311,829.6337,841.7216,825.2015,772.8205,0.0,0.0,0.4161376953125,0.0478515625,0.9158935546875,2.549591064453125,-7.7459716796875,0.5084228515625,5193772.893772894,108069963.36996336,59462051.28205128,79.86944,1.0,1.0,1.0,1.0,1.0,25.0,,0 days 00:00:00
2023-11-09 13:30:33.041,1.1084735,0.87806594,0.7756427,0.96509147,1.0253003,0.26736575,0.102199085,0.8358942,0.9965881,0.4469869,0.35738924,0.64398175,0.7918349,0.26531494,0.36248988,0.7130933,0.6015229,-0.085101165,0.14294143,0.7907532,813.1135,828.4249,835.2747,819.9634,709.9634,0.0,0.0,0.4161376953125,0.0478515625,0.9158935546875,2.549591064453125,-7.7459716796875,0.5084228515625,5193772.893772894,108069963.36996336,59462051.28205128,79.86944,1.0,1.0,1.0,1.0,1.0,25.0,,0 days 00:00:00.001000
2023-11-09 13:30:33.043,1.1084735,0.87806594,0.7756427,0.96509147,1.0253003,0.26736575,0.102199085,0.8358942,0.9965881,0.4469869,0.35738924,0.64398175,0.7918349,0.26531494,0.36248988,0.7130933,0.6015229,-0.085101165,0.14294143,0.7907532,827.2161,830.4396,828.8278,828.4249,730.5128,0.0,0.0,0.4161376953125,0.0478515625,0.9158935546875,2.549591064453125,-7.7459716796875,0.5084228515625,5193772.893772894,108069963.36996336,59462051.28205128,79.86944,1.0,1.0,1.0,1.0,1.0,25.0,,0 days 00:00:00.002000
2023-11-09 13:30:33.043,1.1084735,0.87806594,0.7756427,0.96509147,1.0253003,0.26736575,0.102199085,0.8358942,0.9965881,0.4469869,0.35738924,0.64398175,0.7918349,0.26531494,0.36248988,0.7130933,0.6015229,-0.085101165,0.14294143,0.7907532,832.0513,825.6044,826.8132,841.7216,958.97437,0.0,0.0,0.4161376953125,0.0478515625,0.9158935546875,2.549591064453125,-7.7459716796875,0.5084228515625,5193772.893772894,108069963.36996336,59462051.28205128,79.86944,1.0,1.0,1.0,1.0,1.0,25.0,,0 days 00:00:00
2023-11-09 13:30:33.043,1.1084735,0.87806594,0.7756427,0.96509147,1.0253003,0.26736575,0.102199085,0.8358942,0.9965881,0.4469869,0.35738924,0.64398175,0.7918349,0.26531494,0.36248988,0.7130933,0.6015229,-0.085101165,0.14294143,0.7907532,813.1135,827.2161,836.08057,825.6044,938.8278,0.0,0.0,0.4161376953125,0.0478515625,0.9158935546875,2.549591064453125,-7.7459716796875,0.5084228515625,5193772.893772894,108069963.36996336,59462051.28205128,79.86944,1.0,1.0,1.0,1.0,1.0,25.0,,0 days 00:00:00
2023-11-09 13:30:33.043,1.1084735,0.87806594,0.7756427,0.96509147,1.0253003,0.26736575,0.102199085,0.8358942,0.9965881,0.4469869,0.35738924,0.64398175,0.7918349,0.26531494,0.36248988,0.7130933,0.6015229,-0.085101165,0.14294143,0.7907532,807.47253,831.6484,835.2747,815.12823,705.5311,0.0,0.0,0.4161376953125,0.0478515625,0.9158935546875,2.549591064453125,-7.7459716796875,0.5084228515625,5193772.893772894,108069963.36996336,59462051.28205128,79.86944,1.0,1.0,1.0,1.0,1.0,25.0,,0 days 00:00:00
2023-11-09 13:30:33.117,1.1084735,0.87806594,0.7756427,0.96509147,1.0253003,0.26736575,0.102199085,0.8358942,0.9965881,0.4469869,0.35738924,0.64398175,0.7918349,0.26531494,0.36248988,0.7130933,0.6015229,-0.085101165,0.14294143,0.7907532,837.6923,829.6337,830.0366,839.304,851.39197,0.0,0.0,0.4354248046875,0.05804443359375,0.92205810546875,2.58697509765625,-8.49365234375,-2.579498291015625,5193772.893772894,108069963.36996336,59462051.28205128,79.86944,1.0,1.0,1.0,1.0,1.0,25.0,,0 days 00:00:00.074000
2023-11-09 13:30:33.117,1.1084735,0.87806594,0.7756427,0.96509147,1.0253003,0.26736575,0.102199085,0.8358942,0.9965881,0.4469869,0.35738924,0.64398175,0.7918349,0.26531494,0.36248988,0.7130933,0.6015229,-0.085101165,0.14294143,0.7907532,828.022,834.87177,837.6923,848.5714,922.71063,0.0,0.0,0.4354248046875,0.05804443359375,0.92205810546875,2.58697509765625,-8.49365234375,-2.579498291015625,5193772.893772894,108069963.36996336,59462051.28205128,79.86944,1.0,1.0,1.0,1.0,1.0,25.0,,0 days 00:00:00
2023-11-09 13:30:33.118,1.1084735,0.87806594,0.7756427,0.96509147,1.0253003,0.26736575,0.102199085,0.8358942,0.9965881,0.4469869,0.35738924,0.64398175,0.7918349,0.26531494,0.36248988,0.7130933,0.6015229,-0.085101165,0.14294143,0.7907532,816.337,836.8865,852.1978,834.0659,731.31866,0.0,0.0,0.4354248046875,0.05804443359375,0.92205810546875,2.58697509765625,-8.49365234375,-2.579498291015625,5193772.893772894,108069963.36996336,59462051.28205128,79.86944,1.0,1.0,1.0,1.0,1.0,25.0,,0 days 00:00:00.001000
2023-11-09 13:30:33.118,1.1084735,0.87806594,0.7756427,0.96509147,1.0253003,0.26736575,0.102199085,0.8358942,0.9965881,0.4469869,0.35738924,0.64398175,0.7918349,0.26531494,0.36248988,0.7130933,0.6015229,-0.085101165,0.14294143,0.7907532,841.7216,839.304,850.989,838.9011,630.58606,0.0,0.0,0.4354248046875,0.05804443359375,0.92205810546875,2.58697509765625,-8.49365234375,-2.579498291015625,5193772.893772894,108069963.36996336,59462051.28205128,79.86944,1.0,1.0,1.0,1.0,1.0,25.0,,0 days 00:00:00
2023-11-09 13:30:33.119,1.1084735,0.87806594,0.7756427,0.96509147,1.0253003,0.26736575,0.102199085,0.8358942,0.9965881,0.4469869,0.35738924,0.64398175,0.7918349,0.26531494,0.36248988,0.7130933,0.6015229,-0.085101165,0.14294143,0.7907532,850.18317,842.52747,826.4103,831.2454,756.30035,0.0,0.0,0.4354248046875,0.05804443359375,0.92205810546875,2.58697509765625,-8.49365234375,-2.579498291015625,5193772.893772894,108069963.36996336,59462051.28205128,79.86944,1.0,1.0,1.0,1.0,1.0,25.0,,0 days 00:00:00.001000
2023-11-09 13:30:33.119,1.1084735,0.87806594,0.7756427,0.96509147,1.0253003,0.26736575,0.102199085,0.8358942,0.9965881,0.4469869,0.35738924,0.64398175,0.7918349,0.26531494,0.36248988,0.7130933,0.6015229,-0.085101165,0.14294143,0.7907532,835.6777,837.6923,822.381,835.6777,826.8132,0.0,0.0,0.4354248046875,0.05804443359375,0.92205810546875,2.58697509765625,-8.49365234375,-2.579498291015625,5193772.893772894,108069963.36996336,59462051.28205128,79.86944,1.0,1.0,1.0,1.0,1.0,25.0,,0 days 00:00:00
2023-11-09 13:30:33.120,1.1084735,0.87806594,0.7756427,0.96509147,1.0253003,0.26736575,0.102199085,0.8358942,0.9965881,0.4469869,0.35738924,0.64398175,0.7918349,0.26531494,0.36248988,0.7130933,0.6015229,-0.085101165,0.14294143,0.7907532,827.2161,838.49817,831.6484,864.68866,777.6557,0.0,0.0,0.4354248046875,0.05804443359375,0.92205810546875,2.58697509765625,-8.49365234375,-2.579498291015625,5193772.893772894,108069963.36996336,59462051.28205128,79.86944,1.0,1.0,1.0,1.0,1.0,25.0,,0 days 00:00:00.001000
2023-11-09 13:30:33.120,1.1084735,0.87806594,0.7756427,0.96509147,1.0253003,0.26736575,0.102199085,0.8358942,0.9965881,0.4469869,0.35738924,0.64398175,0.7918349,0.26531494,0.36248988,0.7130933,0.6015229,-0.085101165,0.14294143,0.7907532,823.9927,835.6777,828.4249,844.5421,759.5238,0.0,0.0,0.4354248046875,0.05804443359375,0.92205810546875,2.58697509765625,-8.49365234375,-2.579498291015625,5193772.893772894,108069963.36996336,59462051.28205128,79.86944,1.0,1.0,1.0,1.0,1.0,25.0,,0 days 00:00:00
2023-11-09 13:30:33.121,1.1084735,0.87806594,0.7756427,0.96509147,1.0253003,0.26736575,0.102199085,0.8358942,0.9965881,0.4469869,0.35738924,0.64398175,0.7918349,0.26531494,0.36248988,0.7130933,0.6015229,-0.085101165,0.14294143,0.7907532,834.87177,835.6777,826.0073,846.55676,870.32965,0.0,0.0,0.4354248046875,0.05804443359375,0.92205810546875,2.58697509765625,-8.49365234375,-2.579498291015625,5193772.893772894,108069963.36996336,59462051.28205128,79.86944,1.0,1.0,1.0,1.0,1.0,25.0,,0 days 00:00:00.001000
2023-11-09 13:30:33.121,1.1084735,0.87806594,0.7756427,0.96509147,1.0253003,0.26736575,0.102199085,0.8358942,0.9965881,0.4469869,0.35738924,0.64398175,0.7918349,0.26531494,0.36248988,0.7130933,0.6015229,-0.085101165,0.14294143,0.7907532,856.2271,842.1245,831.2454,856.63007,979.12085,0.0,0.0,0.4354248046875,0.05804443359375,0.92205810546875,2.58697509765625,-8.49365234375,-2.579498291015625,5193772.893772894,108069963.36996336,59462051.28205128,79.86944,1.0,1.0,1.0,1.0,1.0,25.0,,0 days 00:00:00
2023-11-09 13:30:33.122,1.1084735,0.87806594,0.7756427,0.96509147,1.0253003,0.26736575,0.102199085,0.8358942,0.9965881,0.4469869,0.35738924,0.64398175,0.7918349,0.26531494,0.36248988,0.7130933,0.6015229,-0.085101165,0.14294143,0.7907532,840.9158,836.4835,835.6777,830.84247,840.9158,0.0,0.0,0.4354248046875,0.05804443359375,0.92205810546875,2.58697509765625,-8.49365234375,-2.579498291015625,5193772.893772894,108069963.36996336,59462051.28205128,79.86944,1.0,1.0,1.0,1.0,1.0,25.0,,0 days 00:00:00.001000
2023-11-09 13:30:33.122,1.1084735,0.87806594,0.7756427,0.96509147,1.0253003,0.26736575,0.102199085,0.8358942,0.9965881,0.4469869,0.35738924,0.64398175,0.7918349,0.26531494,0.36248988,0.7130933,0.6015229,-0.085101165,0.14294143,0.7907532,839.304,833.663,830.4396,830.4396,776.4469,0.0,0.0,0.4354248046875,0.05804443359375,0.92205810546875,2.58697509765625,-8.49365234375,-2.579498291015625,5193772.893772894,108069963.36996336,59462051.28205128,79.86944,1.0,1.0,1.0,1.0,1.0,25.0,,0 days 00:00:00
2023-11-09 13:30:33.126,1.1084735,0.87806594,0.7756427,0.96509147,1.0253003,0.26736575,0.102199085,0.8358942,0.9965881,0.4469869,0.35738924,0.64398175,0.7918349,0.26531494,0.36248988,0.7130933,0.6015229,-0.085101165,0.14294143,0.7907532,836.8865,830.4396,830.4396,836.4835,849.3773,0.0,0.0,0.44073486328125,0.04132080078125,0.91082763671875,-0.007476806640625,-3.461761474609375,-3.656158447265625,5193772.893772894,107883809.52380952,59363736.26373626,79.86944,1.0,1.0,1.0,1.0,1.0,25.0,,0 days 00:00:00.004000
2023-11-09 13:30:33.127,1.1084735,0.87806594,0.7756427,0.96509147,1.0253003,0.26736575,0.102199085,0.8358942,0.9965881,0.4469869,0.35738924,0.64398175,0.7918349,0.26531494,0.36248988,0.7130933,0.6015229,-0.085101165,0.14294143,0.7907532,840.9158,834.0659,832.0513,850.58606,837.6923,0.0,0.0,0.44073486328125,0.04132080078125,0.91082763671875,-0.007476806640625,-3.461761474609375,-3.656158447265625,5193772.893772894,107883809.52380952,59363736.26373626,79.86944,1.0,1.0,1.0,1.0,1.0,25.0,,0 days 00:00:00.001000
2023-11-09 13:30:33.127,1.1084735,0.87806594,0.7756427,0.96509147,1.0253003,0.26736575,0.102199085,0.8358942,0.9965881,0.4469869,0.35738924,0.64398175,0.7918349,0.26531494,0.36248988,0.7130933,0.6015229,-0.085101165,0.14294143,0.7907532,846.1539,833.663,831.6484,835.6777,769.59705,0.0,0.0,0.44073486328125,0.04132080078125,0.91082763671875,-0.007476806640625,-3.461761474609375,-3.656158447265625,5193772.893772894,107883809.52380952,59363736.26373626,79.86944,1.0,1.0,1.0,1.0,1.0,25.0,,0 days 00:00:00
2023-11-09 13:30:33.128,1.1084735,0.87806594,0.7756427,0.96509147,1.0253003,0.26736575,0.102199085,0.8358942,0.9965881,0.4469869,0.35738924,0.64398175,0.7918349,0.26531494,0.36248988,0.7130933,0.6015229,-0.085101165,0.14294143,0.7907532,821.5751,824.3956,828.4249,828.8278,782.49084,0.0,0.0,0.44073486328125,0.04132080078125,0.91082763671875,-0.007476806640625,-3.461761474609375,-3.656158447265625,5193772.893772894,107883809.52380952,59363736.26373626,79.86944,1.0,1.0,1.0,1.0,1.0,25.0,,0 days 00:00:00.001000
2023-11-09 13:30:33.128,1.1084735,0.87806594,0.7756427,0.96509147,1.0253003,0.26736575,0.102199085,0.8358942,0.9965881,0.4469869,0.35738924,0.64398175,0.7918349,0.26531494,0.36248988,0.7130933,0.6015229,-0.085101165,0.14294143,0.7907532,835.6777,825.2015,827.2161,829.2308,792.96704,0.0,0.0,0.44073486328125,0.04132080078125,0.91082763671875,-0.007476806640625,-3.461761474609375,-3.656158447265625,5193772.893772894,107883809.52380952,59363736.26373626,79.86944,1.0,1.0,1.0,1.0,1.0,25.0,,0 days 00:00:00
2023-11-09 13:30:33.129,1.1084735,0.87806594,0.7756427,0.96509147,1.0253003,0.26736575,0.102199085,0.8358942,0.9965881,0.4469869,0.35738924,0.64398175,0.7918349,0.26531494,0.36248988,0.7130933,0.6015229,-0.085101165,0.14294143,0.7907532,846.9597,828.022,840.9158,838.9011,849.7802,0.0,0.0,0.44073486328125,0.04132080078125,0.91082763671875,-0.007476806640625,-3.461761474609375,-3.656158447265625,5193772.893772894,107883809.52380952,59363736.26373626,79.86944,1.0,1.0,1.0,1.0,1.0,25.0,,0 days 00:00:00.001000
2023-11-09 13:30:33.129,1.1084735,0.87806594,0.7756427,0.96509147,1.0253003,0.26736575,0.102199085,0.8358942,0.9965881,0.4469869,0.35738924,0.64398175,0.7918349,0.26531494,0.36248988,0.7130933,0.6015229,-0.085101165,0.14294143,0.7907532,833.2601,826.8132,844.1392,845.34796,838.0952,0.0,0.0,0.44073486328125,0.04132080078125,0.91082763671875,-0.007476806640625,-3.461761474609375,-3.656158447265625,5193772.893772894,107883809.52380952,59363736.26373626,79.86944,1.0,1.0,1.0,1.0,1.0,25.0,,0 days 00:00:00
2023-11-09 13:30:33.129,1.1084735,0.87806594,0.7756427,0.96509147,1.0253003,0.26736575,0.102199085,0.8358942,0.9965881,0.4469869,0.35738924,0.64398175,0.7918349,0.26531494,0.36248988,0.7130933,0.6015229,-0.085101165,0.14294143,0.7907532,838.49817,825.6044,833.663,842.52747,842.1245,0.0,0.0,0.44073486328125,0.04132080078125,0.91082763671875,-0.007476806640625,-3.461761474609375,-3.656158447265625,5193772.893772894,107883809.52380952,59363736.26373626,79.86944,1.0,1.0,1.0,1.0,1.0,25.0,,0 days 00:00:00
2023-11-09 13:30:33.130,1.1084735,0.87806594,0.7756427,0.96509147,1.0253003,0.26736575,0.102199085,0.8358942,0.9965881,0.4469869,0.35738924,0.64398175,0.7918349,0.26531494,0.36248988,0.7130933,0.6015229,-0.085101165,0.14294143,0.7907532,844.94507,825.2015,831.2454,845.7509,885.2381,0.0,0.0,0.44073486328125,0.04132080078125,0.91082763671875,-0.007476806640625,-3.461761474609375,-3.656158447265625,5193772.893772894,107883809.52380952,59363736.26373626,79.86944,1.0,1.0,1.0,1.0,1.0,25.0,,0 days 00:00:00.001000
2023-11-09 13:30:33.130,1.1706396,0.86556804,0.78004193,0.96509147,1.0504168,0.26339018,0.0794267,0.8358942,1.0779774,0.46850654,0.33193788,0.64398175,0.7760457,0.28896374,0.38025472,0.7130933,0.58815783,-0.089257576,0.112471275,0.7907532,828.4249,830.4396,827.619,837.6923,813.1135,0.0,0.0,0.44073486328125,0.04132080078125,0.91082763671875,-0.007476806640625,-3.461761474609375,-3.656158447265625,5193772.893772894,107883809.52380952,59363736.26373626,79.86944,1.0,1.0,1.0,1.0,1.0,25.0,,0 days 00:00:00
2023-11-09 13:30:33.132,1.1706396,0.86556804,0.78004193,0.96509147,1.0504168,0.26339018,0.0794267,0.8358942,1.0779774,0.46850654,0.33193788,0.64398175,0.7760457,0.28896374,0.38025472,0.7130933,0.58815783,-0.089257576,0.112471275,0.7907532,827.2161,832.8571,822.381,837.28937,782.8938,0.0,0.0,0.44073486328125,0.04132080078125,0.91082763671875,-0.007476806640625,-3.461761474609375,-3.656158447265625,5193772.893772894,107883809.52380952,59363736.26373626,79.86944,1.0,1.0,1.0,1.0,1.0,25.0,,0 days 00:00:00.002000
2023-11-09 13:30:33.133,1.1706396,0.86556804,0.78004193,0.96509147,1.0504168,0.26339018,0.0794267,0.8358942,1.0779774,0.46850654,0.33193788,0.64398175,0.7760457,0.28896374,0.38025472,0.7130933,0.58815783,-0.089257576,0.112471275,0.7907532,843.73627,829.2308,832.8571,845.34796,876.3736,0.0,0.0,0.44073486328125,0.04132080078125,0.91082763671875,-0.007476806640625,-3.461761474609375,-3.656158447265625,5193772.893772894,107883809.52380952,59363736.26373626,79.86944,1.0,1.0,1.0,1.0,1.0,25.0,,0 days 00:00:00.001000
2023-11-09 13:30:33.198,1.1706396,0.86556804,0.78004193,0.96509147,1.0504168,0.26339018,0.0794267,0.8358942,1.0779774,0.46850654,0.33193788,0.64398175,0.7760457,0.28896374,0.38025472,0.7130933,0.58815783,-0.089257576,0.112471275,0.7907532,861.8681,829.6337,846.1539,855.42126,945.2747,0.0,0.0,0.39544677734375,0.04486083984375,0.90728759765625,-0.58319091796875,-2.70660400390625,-5.8917236328125,5193772.893772894,107883809.52380952,59363736.26373626,79.86944,1.0,1.0,1.0,1.0,1.0,25.0,,0 days 00:00:00.065000
2023-11-09 13:30:33.198,1.1706396,0.86556804,0.78004193,0.96509147,1.0504168,0.26339018,0.0794267,0.8358942,1.0779774,0.46850654,0.33193788,0.64398175,0.7760457,0.28896374,0.38025472,0.7130933,0.58815783,-0.089257576,0.112471275,0.7907532,852.6007,829.6337,841.31866,850.58606,929.5604,0.0,0.0,0.39544677734375,0.04486083984375,0.90728759765625,-0.58319091796875,-2.70660400390625,-5.8917236328125,5193772.893772894,107883809.52380952,59363736.26373626,79.86944,1.0,1.0,1.0,1.0,1.0,25.0,,0 days 00:00:00
2023-11-09 13:30:33.199,1.1706396,0.86556804,0.78004193,0.96509147,1.0504168,0.26339018,0.0794267,0.8358942,1.0779774,0.46850654,0.33193788,0.64398175,0.7760457,0.28896374,0.38025472,0.7130933,0.58815783,-0.089257576,0.112471275,0.7907532,833.2601,829.6337,832.8571,833.663,878.3883,0.0,0.0,0.39544677734375,0.04486083984375,0.90728759765625,-0.58319091796875,-2.70660400390625,-5.8917236328125,5193772.893772894,107883809.52380952,59363736.26373626,79.86944,1.0,1.0,1.0,1.0,1.0,25.0,,0 days 00:00:00.001000
2023-11-09 13:30:33.199,1.1706396,0.86556804,0.78004193,0.96509147,1.0504168,0.26339018,0.0794267,0.8358942,1.0779774,0.46850654,0.33193788,0.64398175,0.7760457,0.28896374,0.38025472,0.7130933,0.58815783,-0.089257576,0.112471275,0.7907532,848.1685,832.8571,831.6484,836.8865,832.4542,0.0,0.0,0.39544677734375,0.04486083984375,0.90728759765625,-0.58319091796875,-2.70660400390625,-5.8917236328125,5193772.893772894,107883809.52380952,59363736.26373626,79.86944,1.0,1.0,1.0,1.0,1.0,25.0,,0 days 00:00:00
2023-11-09 13:30:33.200,1.1706396,0.86556804,0.78004193,0.96509147,1.0504168,0.26339018,0.0794267,0.8358942,1.0779774,0.46850654,0.33193788,0.64398175,0.7760457,0.28896374,0.38025472,0.7130933,0.58815783,-0.089257576,0.112471275,0.7907532,863.0769,837.6923,835.6777,846.9597,865.09155,0.0,0.0,0.39544677734375,0.04486083984375,0.90728759765625,-0.58319091796875,-2.70660400390625,-5.8917236328125,5193772.893772894,107883809.52380952,59363736.26373626,79.86944,1.0,1.0,1.0,1.0,1.0,25.0,,0 days 00:00:00.001000
2023-11-09 13:30:33.200,1.1706396,0.86556804,0.78004193,0.96509147,1.0504168,0.26339018,0.0794267,0.8358942,1.0779774,0.46850654,0.33193788,0.64398175,0.7760457,0.28896374,0.38025472,0.7130933,0.58815783,-0.089257576,0.112471275,0.7907532,836.4835,833.2601,844.1392,851.79486,830.84247,0.0,0.0,0.39544677734375,0.04486083984375,0.90728759765625,-0.58319091796875,-2.70660400390625,-5.8917236328125,5193772.893772894,107883809.52380952,59363736.26373626,79.86944,1.0,1.0,1.0,1.0,1.0,25.0,,0 days 00:00:00
2023-11-09 13:30:33.201,1.1706396,0.86556804,0.78004193,0.96509147,1.0504168,0.26339018,0.0794267,0.8358942,1.0779774,0.46850654,0.33193788,0.64398175,0.7760457,0.28896374,0.38025472,0.7130933,0.58815783,-0.089257576,0.112471275,0.7907532,840.10986,828.022,854.61536,852.1978,824.3956,0.0,0.0,0.39544677734375,0.04486083984375,0.90728759765625,-0.58319091796875,-2.70660400390625,-5.8917236328125,5193772.893772894,107883809.52380952,59363736.26373626,79.86944,1.0,1.0,1.0,1.0,1.0,25.0,,0 days 00:00:00.001000
2023-11-09 13:30:33.201,1.1706396,0.86556804,0.78004193,0.96509147,1.0504168,0.26339018,0.0794267,0.8358942,1.0779774,0.46850654,0.33193788,0.64398175,0.7760457,0.28896374,0.38025472,0.7130933,0.58815783,-0.089257576,0.112471275,0.7907532,857.03296,830.0366,858.6447,858.24176,994.43225,0.0,0.0,0.39544677734375,0.04486083984375,0.90728759765625,-0.58319091796875,-2.70660400390625,-5.8917236328125,5193772.893772894,107883809.52380952,59363736.26373626,79.86944,1.0,1.0,1.0,1.0,1.0,25.0,,0 days 00:00:00
2023-11-09 13:30:33.202,1.1706396,0.86556804,0.78004193,0.96509147,1.0504168,0.26339018,0.0794267,0.8358942,1.0779774,0.46850654,0.33193788,0.64398175,0.7760457,0.28896374,0.38025472,0.7130933,0.58815783,-0.089257576,0.112471275,0.7907532,842.9304,826.0073,842.1245,875.16486,1182.1978,0.0,0.0,0.39544677734375,0.04486083984375,0.90728759765625,-0.58319091796875,-2.70660400390625,-5.8917236328125,5193772.893772894,107883809.52380952,59363736.26373626,79.86944,1.0,1.0,1.0,1.0,1.0,25.0,,0 days 00:00:00.001000
2023-11-09 13:30:33.202,1.1706396,0.86556804,0.78004193,0.96509147,1.0504168,0.26339018,0.0794267,0.8358942,1.0779774,0.46850654,0.33193788,0.64398175,0.7760457,0.28896374,0.38025472,0.7130933,0.58815783,-0.089257576,0.112471275,0.7907532,845.34796,823.9927,832.8571,871.53845,1180.1831,0.0,0.0,0.39544677734375,0.04486083984375,0.90728759765625,-0.58319091796875,-2.70660400390625,-5.8917236328125,5193772.893772894,107883809.52380952,59363736.26373626,79.86944,1.0,1.0,1.0,1.0,1.0,25.0,,0 days 00:00:00
2023-11-09 13:30:33.202,1.1706396,0.86556804,0.78004193,0.96509147,1.0504168,0.26339018,0.0794267,0.8358942,1.0779774,0.46850654,0.33193788,0.64398175,0.7760457,0.28896374,0.38025472,0.7130933,0.58815783,-0.089257576,0.112471275,0.7907532,822.7839,826.0073,834.87177,841.7216,1018.20514,0.0,0.0,0.39544677734375,0.04486083984375,0.90728759765625,-0.58319091796875,-2.70660400390625,-5.8917236328125,5193772.893772894,107883809.52380952,59363736.26373626,79.86944,1.0,1.0,1.0,1.0,1.0,25.0,,0 days 00:00:00
2023-11-09 13:30:33.203,1.1706396,0.86556804,0.78004193,0.96509147,1.0504168,0.26339018,0.0794267,0.8358942,1.0779774,0.46850654,0.33193788,0.64398175,0.7760457,0.28896374,0.38025472,0.7130933,0.58815783,-0.089257576,0.112471275,0.7907532,790.54944,830.84247,836.4835,821.5751,790.14655,0.0,0.0,0.39544677734375,0.04486083984375,0.90728759765625,-0.58319091796875,-2.70660400390625,-5.8917236328125,5193772.893772894,107883809.52380952,59363736.26373626,79.86944,1.0,1.0,1.0,1.0,1.0,25.0,,0 days 00:00:00.001000
2023-11-09 13:30:33.207,1.1706396,0.86556804,0.78004193,0.96509147,1.0504168,0.26339018,0.0794267,0.8358942,1.0779774,0.46850654,0.33193788,0.64398175,0.7760457,0.28896374,0.38025472,0.7130933,0.58815783,-0.089257576,0.112471275,0.7907532,816.7399,834.4689,848.5714,834.4689,708.7546,0.0,0.0,0.39544677734375,0.04486083984375,0.90728759765625,-0.58319091796875,-2.70660400390625,-5.8917236328125,5238901.098901099,107820952.38095236,59349230.76923077,79.86944,1.0,1.0,1.0,1.0,1.0,25.0,,0 days 00:00:00.004000
2023-11-09 13:30:33.207,1.1706396,0.86556804,0.78004193,0.96509147,1.0504168,0.26339018,0.0794267,0.8358942,1.0779774,0.46850654,0.33193788,0.64398175,0.7760457,0.28896374,0.38025472,0.7130933,0.58815783,-0.089257576,0.112471275,0.7907532,823.1868,832.0513,846.1539,839.304,701.50183,0.0,0.0,0.39544677734375,0.04486083984375,0.90728759765625,-0.58319091796875,-2.70660400390625,-5.8917236328125,5238901.098901099,107820952.38095236,59349230.76923077,79.86944,1.0,1.0,1.0,1.0,1.0,25.0,,0 days 00:00:00
2023-11-09 13:30:33.208,1.1706396,0.86556804,0.78004193,0.96509147,1.0504168,0.26339018,0.0794267,0.8358942,1.0779774,0.46850654,0.33193788,0.64398175,0.7760457,0.28896374,0.38025472,0.7130933,0.58815783,-0.089257576,0.112471275,0.7907532,809.89014,828.4249,837.6923,833.663,720.4396,0.0,0.0,0.39544677734375,0.04486083984375,0.90728759765625,-0.58319091796875,-2.70660400390625,-5.8917236328125,5238901.098901099,107820952.38095236,59349230.76923077,79.86944,1.0,1.0,1.0,1.0,1.0,25.0,,0 days 00:00:00.001000
2023-11-09 13:30:33.208,1.1706396,0.86556804,0.78004193,0.96509147,1.0504168,0.26339018,0.0794267,0.8358942,1.0779774,0.46850654,0.33193788,0.64398175,0.7760457,0.28896374,0.38025472,0.7130933,0.58815783,-0.089257576,0.112471275,0.7907532,819.9634,828.4249,834.4689,826.4103,741.39197,0.0,0.0,0.39544677734375,0.04486083984375,0.90728759765625,-0.58319091796875,-2.70660400390625,-5.8917236328125,5238901.098901099,107820952.38095236,59349230.76923077,79.86944,1.0,1.0,1.0,1.0,1.0,25.0,,0 days 00:00:00
2023-11-09 13:30:33.209,1.1706396,0.86556804,0.78004193,0.96509147,1.0504168,0.26339018,0.0794267,0.8358942,1.0779774,0.46850654,0.33193788,0.64398175,0.7760457,0.28896374,0.38025472,0.7130933,0.58815783,-0.089257576,0.112471275,0.7907532,837.6923,828.4249,832.8571,821.1722,811.9048,0.0,0.0,0.39544677734375,0.04486083984375,0.90728759765625,-0.58319091796875,-2.70660400390625,-5.8917236328125,5238901.098901099,107820952.38095236,59349230.76923077,79.86944,1.0,1.0,1.0,1.0,1.0,25.0,,0 days 00:00:00.001000
2023-11-09 13:30:33.209,1.1706396,0.86556804,0.78004193,0.96509147,1.0504168,0.26339018,0.0794267,0.8358942,1.0779774,0.46850654,0.33193788,0.64398175,0.7760457,0.28896374,0.38025472,0.7130933,0.58815783,-0.089257576,0.112471275,0.7907532,856.63007,833.2601,837.28937,817.9487,826.8132,0.0,0.0,0.39544677734375,0.04486083984375,0.90728759765625,-0.58319091796875,-2.70660400390625,-5.8917236328125,5238901.098901099,107820952.38095236,59349230.76923077,79.86944,1.0,1.0,1.0,1.0,1.0,25.0,,0 days 00:00:00
2023-11-09 13:30:33.210,1.1706396,0.86556804,0.78004193,0.96509147,1.0504168,0.26339018,0.0794267,0.8358942,1.0779774,0.46850654,0.33193788,0.64398175,0.7760457,0.28896374,0.38025472,0.7130933,0.58815783,-0.089257576,0.112471275,0.7907532,825.6044,827.2161,834.87177,826.8132,809.89014,0.0,0.0,0.39544677734375,0.04486083984375,0.90728759765625,-0.58319091796875,-2.70660400390625,-5.8917236328125,5238901.098901099,107820952.38095236,59349230.76923077,79.86944,1.0,1.0,1.0,1.0,1.0,25.0,,0 days 00:00:00.001000
2023-11-09 13:30:33.210,1.1706396,0.86556804,0.78004193,0.96509147,1.0504168,0.26339018,0.0794267,0.8358942,1.0779774,0.46850654,0.33193788,0.64398175,0.7760457,0.28896374,0.38025472,0.7130933,0.58815783,-0.089257576,0.112471275,0.7907532,817.9487,820.7692,840.9158,835.2747,876.3736,0.0,0.0,0.39544677734375,0.04486083984375,0.90728759765625,-0.58319091796875,-2.70660400390625,-5.8917236328125,5238901.098901099,107820952.38095236,59349230.76923077,79.86944,1.0,1.0,1.0,1.0,1.0,25.0,,0 days 00:00:00
2023-11-09 13:30:33.210,1.1706396,0.86556804,0.78004193,0.96509147,1.0504168,0.26339018,0.0794267,0.8358942,1.0779774,0.46850654,0.33193788,0.64398175,0.7760457,0.28896374,0.38025472,0.7130933,0.58815783,-0.089257576,0.112471275,0.7907532,828.8278,829.6337,852.6007,822.381,821.978,0.0,0.0,0.39544677734375,0.04486083984375,0.90728759765625,-0.58319091796875,-2.70660400390625,-5.8917236328125,5238901.098901099,107820952.38095236,59349230.76923077,79.86944,1.0,1.0,1.0,1.0,1.0,25.0,,0 days 00:00:00
2023-11-09 13:30:33.211,1.1706396,0.86556804,0.78004193,0.96509147,1.0504168,0.26339018,0.0794267,0.8358942,1.0779774,0.46850654,0.33193788,0.64398175,0.7760457,0.28896374,0.38025472,0.7130933,0.58815783,-0.089257576,0.112471275,0.7907532,824.7985,830.0366,848.1685,831.2454,722.4542,0.0,0.0,0.39544677734375,0.04486083984375,0.90728759765625,-0.58319091796875,-2.70660400390625,-5.8917236328125,5238901.098901099,107820952.38095236,59349230.76923077,79.86944,1.0,1.0,1.0,1.0,1.0,25.0,,0 days 00:00:00.001000
2023-11-09 13:30:33.211,1.1706396,0.86556804,0.78004193,0.96509147,1.0504168,0.26339018,0.0794267,0.8358942,1.0779774,0.46850654,0.33193788,0.64398175,0.7760457,0.28896374,0.38025472,0.7130933,0.58815783,-0.089257576,0.112471275,0.7907532,810.696,822.381,840.5128,846.9597,764.7619,0.0,0.0,0.39544677734375,0.04486083984375,0.90728759765625,-0.58319091796875,-2.70660400390625,-5.8917236328125,5238901.098901099,107820952.38095236,59349230.76923077,79.86944,1.0,1.0,1.0,1.0,1.0,25.0,,0 days 00:00:00
2023-11-09 13:30:33.211,1.2124101,0.84736,0.8001571,0.96509147,1.0662287,0.27739507,0.055626526,0.8358942,1.0981545,0.4829216,0.31293625,0.64398175,0.7790834,0.3183161,0.39553988,0.7130933,0.59089667,-0.088718474,0.090078175,0.7907532,821.1722,823.9927,836.4835,840.5128,798.60803,0.0,0.0,0.39544677734375,0.04486083984375,0.90728759765625,-0.58319091796875,-2.70660400390625,-5.8917236328125,5238901.098901099,107820952.38095236,59349230.76923077,79.86944,1.0,1.0,1.0,1.0,1.0,25.0,,0 days 00:00:00
2023-11-09 13:30:33.280,1.2124101,0.84736,0.8001571,0.96509147,1.0662287,0.27739507,0.055626526,0.8358942,1.0981545,0.4829216,0.31293625,0.64398175,0.7790834,0.3183161,0.39553988,0.7130933,0.59089667,-0.088718474,0.090078175,0.7907532,828.022,829.6337,833.2601,824.3956,759.92676,0.0,0.0,0.41387939453125,0.04608154296875,0.90704345703125,-0.07476806640625,-4.26177978515625,-8.874969482421875,5238901.098901099,107820952.38095236,59349230.76923077,79.86944,1.0,1.0,1.0,1.0,1.0,25.0,,0 days 00:00:00.069000
2023-11-09 13:30:33.281,1.2124101,0.84736,0.8001571,0.96509147,1.0662287,0.27739507,0.055626526,0.8358942,1.0981545,0.4829216,0.31293625,0.64398175,0.7790834,0.3183161,0.39553988,0.7130933,0.59089667,-0.088718474,0.090078175,0.7907532,821.978,827.2161,834.4689,823.5897,750.65936,0.0,0.0,0.41387939453125,0.04608154296875,0.90704345703125,-0.07476806640625,-4.26177978515625,-8.874969482421875,5238901.098901099,107820952.38095236,59349230.76923077,79.86944,1.0,1.0,1.0,1.0,1.0,25.0,,0 days 00:00:00.001000
2023-11-09 13:30:33.282,1.2124101,0.84736,0.8001571,0.96509147,1.0662287,0.27739507,0.055626526,0.8358942,1.0981545,0.4829216,0.31293625,0.64398175,0.7790834,0.3183161,0.39553988,0.7130933,0.59089667,-0.088718474,0.090078175,0.7907532,821.5751,823.9927,828.4249,821.1722,817.5458,0.0,0.0,0.41387939453125,0.04608154296875,0.90704345703125,-0.07476806640625,-4.26177978515625,-8.874969482421875,5238901.098901099,107820952.38095236,59349230.76923077,79.86944,1.0,1.0,1.0,1.0,1.0,25.0,,0 days 00:00:00.001000
2023-11-09 13:30:33.282,1.2124101,0.84736,0.8001571,0.96509147,1.0662287,0.27739507,0.055626526,0.8358942,1.0981545,0.4829216,0.31293625,0.64398175,0.7790834,0.3183161,0.39553988,0.7130933,0.59089667,-0.088718474,0.090078175,0.7907532,812.3077,823.9927,831.6484,811.0989,891.28204,0.0,0.0,0.41387939453125,0.04608154296875,0.90704345703125,-0.07476806640625,-4.26177978515625,-8.874969482421875,5238901.098901099,107820952.38095236,59349230.76923077,79.86944,1.0,1.0,1.0,1.0,1.0,25.0,,0 days 00:00:00
2023-11-09 13:30:33.282,1.2124101,0.84736,0.8001571,0.96509147,1.0662287,0.27739507,0.055626526,0.8358942,1.0981545,0.4829216,0.31293625,0.64398175,0.7790834,0.3183161,0.39553988,0.7130933,0.59089667,-0.088718474,0.090078175,0.7907532,816.7399,826.8132,842.1245,808.2784,726.8865,0.0,0.0,0.41387939453125,0.04608154296875,0.90704345703125,-0.07476806640625,-4.26177978515625,-8.874969482421875,5238901.098901099,107820952.38095236,59349230.76923077,79.86944,1.0,1.0,1.0,1.0,1.0,25.0,,0 days 00:00:00
2023-11-09 13:30:33.283,1.2124101,0.84736,0.8001571,0.96509147,1.0662287,0.27739507,0.055626526,0.8358942,1.0981545,0.4829216,0.31293625,0.64398175,0.7790834,0.3183161,0.39553988,0.7130933,0.59089667,-0.088718474,0.090078175,0.7907532,849.3773,822.381,833.2601,824.7985,724.4689,0.0,0.0,0.41387939453125,0.04608154296875,0.90704345703125,-0.07476806640625,-4.26177978515625,-8.874969482421875,5238901.098901099,107820952.38095236,59349230.76923077,79.86944,1.0,1.0,1.0,1.0,1.0,25.0,,0 days 00:00:00.001000
2023-11-09 13:30:33.283,1.2124101,0.84736,0.8001571,0.96509147,1.0662287,0.27739507,0.055626526,0.8358942,1.0981545,0.4829216,0.31293625,0.64398175,0.7790834,0.3183161,0.39553988,0.7130933,0.59089667,-0.088718474,0.090078175,0.7907532,847.3626,816.337,823.1868,831.6484,871.13556,0.0,0.0,0.41387939453125,0.04608154296875,0.90704345703125,-0.07476806640625,-4.26177978515625,-8.874969482421875,5238901.098901099,107820952.38095236,59349230.76923077,79.86944,1.0,1.0,1.0,1.0,1.0,25.0,,0 days 00:00:00
2023-11-09 13:30:33.284,1.2124101,0.84736,0.8001571,0.96509147,1.0662287,0.27739507,0.055626526,0.8358942,1.0981545,0.4829216,0.31293625,0.64398175,0.7790834,0.3183161,0.39553988,0.7130933,0.59089667,-0.088718474,0.090078175,0.7907532,826.4103,807.0696,829.6337,844.1392,1124.9817,0.0,0.0,0.41387939453125,0.04608154296875,0.90704345703125,-0.07476806640625,-4.26177978515625,-8.874969482421875,5238901.098901099,107820952.38095236,59349230.76923077,79.86944,1.0,1.0,1.0,1.0,1.0,25.0,,0 days 00:00:00.001000
2023-11-09 13:30:33.284,1.2124101,0.84736,0.8001571,0.96509147,1.0662287,0.27739507,0.055626526,0.8358942,1.0981545,0.4829216,0.31293625,0.64398175,0.7790834,0.3183161,0.39553988,0.7130933,0.59089667,-0.088718474,0.090078175,0.7907532,847.76556,808.68134,848.97437,858.24176,1073.4066,0.0,0.0,0.41387939453125,0.04608154296875,0.90704345703125,-0.07476806640625,-4.26177978515625,-8.874969482421875,5238901.098901099,107820952.38095236,59349230.76923077,79.86944,1.0,1.0,1.0,1.0,1.0,25.0,,0 days 00:00:00
2023-11-09 13:30:33.285,1.2124101,0.84736,0.8001571,0.96509147,1.0662287,0.27739507,0.055626526,0.8358942,1.0981545,0.4829216,0.31293625,0.64398175,0.7790834,0.3183161,0.39553988,0.7130933,0.59089667,-0.088718474,0.090078175,0.7907532,853.8095,831.2454,838.0952,822.381,730.9158,0.0,0.0,0.41387939453125,0.04608154296875,0.90704345703125,-0.07476806640625,-4.26177978515625,-8.874969482421875,5238901.098901099,107820952.38095236,59349230.76923077,79.86944,1.0,1.0,1.0,1.0,1.0,25.0,,0 days 00:00:00.001000
2023-11-09 13:30:33.285,1.2124101,0.84736,0.8001571,0.96509147,1.0662287,0.27739507,0.055626526,0.8358942,1.0981545,0.4829216,0.31293625,0.64398175,0.7790834,0.3183161,0.39553988,0.7130933,0.59089667,-0.088718474,0.090078175,0.7907532,832.0513,840.5128,826.8132,801.4286,697.47253,0.0,0.0,0.41387939453125,0.04608154296875,0.90704345703125,-0.07476806640625,-4.26177978515625,-8.874969482421875,5238901.098901099,107820952.38095236,59349230.76923077,79.86944,1.0,1.0,1.0,1.0,1.0,25.0,,0 days 00:00:00
2023-11-09 13:30:33.286,1.2124101,0.84736,0.8001571,0.96509147,1.0662287,0.27739507,0.055626526,0.8358942,1.0981545,0.4829216,0.31293625,0.64398175,0.7790834,0.3183161,0.39553988,0.7130933,0.59089667,-0.088718474,0.090078175,0.7907532,819.5604,843.3333,831.2454,801.02563,785.7143,0.0,0.0,0.41387939453125,0.04608154296875,0.90704345703125,-0.07476806640625,-4.26177978515625,-8.874969482421875,5238901.098901099,107820952.38095236,59349230.76923077,79.86944,1.0,1.0,1.0,1.0,1.0,25.0,,0 days 00:00:00.001000
2023-11-09 13:30:33.313,1.2124101,0.84736,0.8001571,0.96509147,1.0662287,0.27739507,0.055626526,0.8358942,1.0981545,0.4829216,0.31293625,0.64398175,0.7790834,0.3183161,0.39553988,0.7130933,0.59089667,-0.088718474,0.090078175,0.7907532,813.91943,854.21246,826.8132,799.011,732.9304,0.0,0.0,0.3912353515625,0.0340576171875,0.90985107421875,0.590667724609375,-3.521575927734375,-11.910552978515623,5227619.047619048,107836263.73626374,59354871.79487179,79.86944,1.0,1.0,1.0,1.0,1.0,25.0,,0 days 00:00:00.027000
2023-11-09 13:30:33.314,1.2124101,0.84736,0.8001571,0.96509147,1.0662287,0.27739507,0.055626526,0.8358942,1.0981545,0.4829216,0.31293625,0.64398175,0.7790834,0.3183161,0.39553988,0.7130933,0.59089667,-0.088718474,0.090078175,0.7907532,816.7399,859.85345,832.8571,808.68134,672.8938,0.0,0.0,0.3912353515625,0.0340576171875,0.90985107421875,0.590667724609375,-3.521575927734375,-11.910552978515623,5227619.047619048,107836263.73626374,59354871.79487179,79.86944,1.0,1.0,1.0,1.0,1.0,25.0,,0 days 00:00:00.001000
2023-11-09 13:30:33.314,1.2124101,0.84736,0.8001571,0.96509147,1.0662287,0.27739507,0.055626526,0.8358942,1.0981545,0.4829216,0.31293625,0.64398175,0.7790834,0.3183161,0.39553988,0.7130933,0.59089667,-0.088718474,0.090078175,0.7907532,833.663,859.0476,832.0513,813.1135,662.01465,0.0,0.0,0.3912353515625,0.0340576171875,0.90985107421875,0.590667724609375,-3.521575927734375,-11.910552978515623,5227619.047619048,107836263.73626374,59354871.79487179,79.86944,1.0,1.0,1.0,1.0,1.0,25.0,,0 days 00:00:00
2023-11-09 13:30:33.314,1.2124101,0.84736,0.8001571,0.96509147,1.0662287,0.27739507,0.055626526,0.8358942,1.0981545,0.4829216,0.31293625,0.64398175,0.7790834,0.3183161,0.39553988,0.7130933,0.59089667,-0.088718474,0.090078175,0.7907532,831.6484,857.4359,824.3956,809.4872,637.8388,0.0,0.0,0.3912353515625,0.0340576171875,0.90985107421875,0.590667724609375,-3.521575927734375,-11.910552978515623,5227619.047619048,107836263.73626374,59354871.79487179,79.86944,1.0,1.0,1.0,1.0,1.0,25.0,,0 days 00:00:00
2023-11-09 13:30:33.315,1.2124101,0.84736,0.8001571,0.96509147,1.0662287,0.27739507,0.055626526,0.8358942,1.0981545,0.4829216,0.31293625,0.64398175,0.7790834,0.3183161,0.39553988,0.7130933,0.59089667,-0.088718474,0.090078175,0.7907532,815.9341,857.4359,817.9487,791.3553,672.0879,0.0,0.0,0.3912353515625,0.0340576171875,0.90985107421875,0.590667724609375,-3.521575927734375,-11.910552978515623,5227619.047619048,107836263.73626374,59354871.79487179,79.86944,1.0,1.0,1.0,1.0,1.0,25.0,,0 days 00:00:00.001000
2023-11-09 13:30:33.315,1.2124101,0.84736,0.8001571,0.96509147,1.0662287,0.27739507,0.055626526,0.8358942,1.0981545,0.4829216,0.31293625,0.64398175,0.7790834,0.3183161,0.39553988,0.7130933,0.59089667,-0.088718474,0.090078175,0.7907532,827.2161,863.0769,813.91943,798.20514,729.304,0.0,0.0,0.3912353515625,0.0340576171875,0.90985107421875,0.590667724609375,-3.521575927734375,-11.910552978515623,5227619.047619048,107836263.73626374,59354871.79487179,79.86944,1.0,1.0,1.0,1.0,1.0,25.0,,0 days 00:00:00
2023-11-09 13:30:33.315,1.2124101,0.84736,0.8001571,0.96509147,1.0662287,0.27739507,0.055626526,0.8358942,1.0981545,0.4829216,0.31293625,0.64398175,0.7790834,0.3183161,0.39553988,0.7130933,0.59089667,-0.088718474,0.090078175,0.7907532,837.28937,869.92676,814.3223,795.78754,774.43225,0.0,0.0,0.3912353515625,0.0340576171875,0.90985107421875,0.590667724609375,-3.521575927734375,-11.910552978515623,5227619.047619048,107836263.73626374,59354871.79487179,79.86944,1.0,1.0,1.0,1.0,1.0,25.0,,0 days 00:00:00
2023-11-09 13:30:33.316,1.2124101,0.84736,0.8001571,0.96509147,1.0662287,0.27739507,0.055626526,0.8358942,1.0981545,0.4829216,0.31293625,0.64398175,0.7790834,0.3183161,0.39553988,0.7130933,0.59089667,-0.088718474,0.090078175,0.7907532,832.8571,876.77655,819.5604,792.5641,723.2601,0.0,0.0,0.3912353515625,0.0340576171875,0.90985107421875,0.590667724609375,-3.521575927734375,-11.910552978515623,5227619.047619048,107836263.73626374,59354871.79487179,79.86944,1.0,1.0,1.0,1.0,1.0,25.0,,0 days 00:00:00.001000
2023-11-09 13:30:33.316,1.2124101,0.84736,0.8001571,0.96509147,1.0662287,0.27739507,0.055626526,0.8358942,1.0981545,0.4829216,0.31293625,0.64398175,0.7790834,0.3183161,0.39553988,0.7130933,0.59089667,-0.088718474,0.090078175,0.7907532,853.4066,881.2088,819.5604,814.7253,683.36993,0.0,0.0,0.3912353515625,0.0340576171875,0.90985107421875,0.590667724609375,-3.521575927734375,-11.910552978515623,5227619.047619048,107836263.73626374,59354871.79487179,79.86944,1.0,1.0,1.0,1.0,1.0,25.0,,0 days 00:00:00
2023-11-09 13:30:33.317,1.2124101,0.84736,0.8001571,0.96509147,1.0662287,0.27739507,0.055626526,0.8358942,1.0981545,0.4829216,0.31293625,0.64398175,0.7790834,0.3183161,0.39553988,0.7130933,0.59089667,-0.088718474,0.090078175,0.7907532,855.82416,884.43225,804.65204,813.1135,700.696,0.0,0.0,0.3912353515625,0.0340576171875,0.90985107421875,0.590667724609375,-3.521575927734375,-11.910552978515623,5227619.047619048,107836263.73626374,59354871.79487179,79.86944,1.0,1.0,1.0,1.0,1.0,25.0,,0 days 00:00:00.001000
2023-11-09 13:30:33.317,1.2124101,0.84736,0.8001571,0.96509147,1.0662287,0.27739507,0.055626526,0.8358942,1.0981545,0.4829216,0.31293625,0.64398175,0.7790834,0.3183161,0.39553988,0.7130933,0.59089667,-0.088718474,0.090078175,0.7907532,873.5531,879.19415,797.8022,817.9487,1038.7546,0.0,0.0,0.3912353515625,0.0340576171875,0.90985107421875,0.590667724609375,-3.521575927734375,-11.910552978515623,5227619.047619048,107836263.73626374,59354871.79487179,79.86944,1.0,1.0,1.0,1.0,1.0,25.0,,0 days 00:00:00
2023-11-09 13:30:33.317,1.2124101,0.84736,0.8001571,0.96509147,1.0662287,0.27739507,0.055626526,0.8358942,1.0981545,0.4829216,0.31293625,0.64398175,0.7790834,0.3183161,0.39553988,0.7130933,0.59089667,-0.088718474,0.090078175,0.7907532,862.27106,882.8205,812.3077,813.91943,1029.8901,0.0,0.0,0.3912353515625,0.0340576171875,0.90985107421875,0.590667724609375,-3.521575927734375,-11.910552978515623,5227619.047619048,107836263.73626374,59354871.79487179,79.86944,1.0,1.0,1.0,1.0,1.0,25.0,,0 days 00:00:00
2023-11-09 13:30:33.343,1.2124101,0.84736,0.8001571,0.96509147,1.0662287,0.27739507,0.055626526,0.8358942,1.0981545,0.4829216,0.31293625,0.64398175,0.7790834,0.3183161,0.39553988,0.7130933,0.59089667,-0.088718474,0.090078175,0.7907532,826.0073,890.4762,822.381,809.4872,730.5128,0.0,0.0,0.41192626953125,0.055419921875,0.91046142578125,3.476715087890625,-4.08233642578125,-14.542388916015623,5227619.047619048,107836263.73626374,59354871.79487179,79.86944,1.0,1.0,1.0,1.0,1.0,25.0,,0 days 00:00:00.026000
2023-11-09 13:30:33.344,1.2343463,0.8251935,0.8365637,0.96509147,1.06379,0.29216725,0.061660174,0.8358942,1.1043135,0.4952697,0.31293625,0.64398175,0.7852596,0.338585,0.40854785,0.7130933,0.60765433,-0.085557505,0.09135807,0.7907532,840.10986,873.95605,810.293,820.3663,885.64105,0.0,0.0,0.41192626953125,0.055419921875,0.91046142578125,3.476715087890625,-4.08233642578125,-14.542388916015623,5227619.047619048,107836263.73626374,59354871.79487179,79.86944,1.0,1.0,1.0,1.0,1.0,25.0,,0 days 00:00:00.001000
2023-11-09 13:30:33.346,1.2343463,0.8251935,0.8365637,0.96509147,1.06379,0.29216725,0.061660174,0.8358942,1.1043135,0.4952697,0.31293625,0.64398175,0.7852596,0.338585,0.40854785,0.7130933,0.60765433,-0.085557505,0.09135807,0.7907532,850.18317,865.89746,808.2784,837.6923,931.978,0.0,0.0,0.41192626953125,0.055419921875,0.91046142578125,3.476715087890625,-4.08233642578125,-14.542388916015623,5227619.047619048,107836263.73626374,59354871.79487179,79.86944,1.0,1.0,1.0,1.0,1.0,25.0,,0 days 00:00:00.002000
2023-11-09 13:30:33.346,1.2343463,0.8251935,0.8365637,0.96509147,1.06379,0.29216725,0.061660174,0.8358942,1.1043135,0.4952697,0.31293625,0.64398175,0.7852596,0.338585,0.40854785,0.7130933,0.60765433,-0.085557505,0.09135807,0.7907532,835.2747,873.95605,823.1868,825.2015,735.34796,0.0,0.0,0.41192626953125,0.055419921875,0.91046142578125,3.476715087890625,-4.08233642578125,-14.542388916015623,5227619.047619048,107836263.73626374,59354871.79487179,79.86944,1.0,1.0,1.0,1.0,1.0,25.0,,0 days 00:00:00
2023-11-09 13:30:33.346,1.2343463,0.8251935,0.8365637,0.96509147,1.06379,0.29216725,0.061660174,0.8358942,1.1043135,0.4952697,0.31293625,0.64398175,0.7852596,0.338585,0.40854785,0.7130933,0.60765433,-0.085557505,0.09135807,0.7907532,857.4359,871.13556,834.4689,817.1429,719.6337,0.0,0.0,0.41192626953125,0.055419921875,0.91046142578125,3.476715087890625,-4.08233642578125,-14.542388916015623,5227619.047619048,107836263.73626374,59354871.79487179,79.86944,1.0,1.0,1.0,1.0,1.0,25.0,,0 days 00:00:00
2023-11-09 13:30:33.347,1.2343463,0.8251935,0.8365637,0.96509147,1.06379,0.29216725,0.061660174,0.8358942,1.1043135,0.4952697,0.31293625,0.64398175,0.7852596,0.338585,0.40854785,0.7130933,0.60765433,-0.085557505,0.09135807,0.7907532,874.7619,861.4652,836.8865,839.304,888.0586,0.0,0.0,0.41192626953125,0.055419921875,0.91046142578125,3.476715087890625,-4.08233642578125,-14.542388916015623,5227619.047619048,107836263.73626374,59354871.79487179,79.86944,1.0,1.0,1.0,1.0,1.0,25.0,,0 days 00:00:00.001000
2023-11-09 13:30:33.347,1.2343463,0.8251935,0.8365637,0.96509147,1.06379,0.29216725,0.061660174,0.8358942,1.1043135,0.4952697,0.31293625,0.64398175,0.7852596,0.338585,0.40854785,0.7130933,0.60765433,-0.085557505,0.09135807,0.7907532,865.4945,853.4066,821.1722,836.08057,908.20514,0.0,0.0,0.41192626953125,0.055419921875,0.91046142578125,3.476715087890625,-4.08233642578125,-14.542388916015623,5227619.047619048,107836263.73626374,59354871.79487179,79.86944,1.0,1.0,1.0,1.0,1.0,25.0,,0 days 00:00:00
2023-11-09 13:30:33.347,1.2343463,0.8251935,0.8365637,0.96509147,1.06379,0.29216725,0.061660174,0.8358942,1.1043135,0.4952697,0.31293625,0.64398175,0.7852596,0.338585,0.40854785,0.7130933,0.60765433,-0.085557505,0.09135807,0.7907532,845.34796,853.4066,801.8315,817.9487,771.2088,0.0,0.0,0.41192626953125,0.055419921875,0.91046142578125,3.476715087890625,-4.08233642578125,-14.542388916015623,5227619.047619048,107836263.73626374,59354871.79487179,79.86944,1.0,1.0,1.0,1.0,1.0,25.0,,0 days 00:00:00
2023-11-09 13:30:33.348,1.2343463,0.8251935,0.8365637,0.96509147,1.06379,0.29216725,0.061660174,0.8358942,1.1043135,0.4952697,0.31293625,0.64398175,0.7852596,0.338585,0.40854785,0.7130933,0.60765433,-0.085557505,0.09135807,0.7907532,834.4689,850.989,796.5934,801.8315,707.9487,0.0,0.0,0.41192626953125,0.055419921875,0.91046142578125,3.476715087890625,-4.08233642578125,-14.542388916015623,5227619.047619048,107836263.73626374,59354871.79487179,79.86944,1.0,1.0,1.0,1.0,1.0,25.0,,0 days 00:00:00.001000
2023-11-09 13:30:33.348,1.2343463,0.8251935,0.8365637,0.96509147,1.06379,0.29216725,0.061660174,0.8358942,1.1043135,0.4952697,0.31293625,0.64398175,0.7852596,0.338585,0.40854785,0.7130933,0.60765433,-0.085557505,0.09135807,0.7907532,846.55676,846.1539,800.6227,820.7692,863.47986,0.0,0.0,0.41192626953125,0.055419921875,0.91046142578125,3.476715087890625,-4.08233642578125,-14.542388916015623,5227619.047619048,107836263.73626374,59354871.79487179,79.86944,1.0,1.0,1.0,1.0,1.0,25.0,,0 days 00:00:00
2023-11-09 13:30:33.348,1.2343463,0.8251935,0.8365637,0.96509147,1.06379,0.29216725,0.061660174,0.8358942,1.1043135,0.4952697,0.31293625,0.64398175,0.7852596,0.338585,0.40854785,0.7130933,0.60765433,-0.085557505,0.09135807,0.7907532,846.1539,850.58606,805.05493,834.4689,943.663,0.0,0.0,0.41192626953125,0.055419921875,0.91046142578125,3.476715087890625,-4.08233642578125,-14.542388916015623,5227619.047619048,107836263.73626374,59354871.79487179,79.86944,1.0,1.0,1.0,1.0,1.0,25.0,,0 days 00:00:00
2023-11-09 13:30:33.349,1.2343463,0.8251935,0.8365637,0.96509147,1.06379,0.29216725,0.061660174,0.8358942,1.1043135,0.4952697,0.31293625,0.64398175,0.7852596,0.338585,0.40854785,0.7130933,0.60765433,-0.085557505,0.09135807,0.7907532,864.68866,853.8095,813.5165,809.89014,732.52747,0.0,0.0,0.41192626953125,0.055419921875,0.91046142578125,3.476715087890625,-4.08233642578125,-14.542388916015623,5227619.047619048,107836263.73626374,59354871.79487179,79.86944,1.0,1.0,1.0,1.0,1.0,25.0,,0 days 00:00:00.001000
2023-11-09 13:30:33.413,1.2343463,0.8251935,0.8365637,0.96509147,1.06379,0.29216725,0.061660174,0.8358942,1.1043135,0.4952697,0.31293625,0.64398175,0.7852596,0.338585,0.40854785,0.7130933,0.60765433,-0.085557505,0.09135807,0.7907532,859.0476,846.55676,818.7546,811.0989,724.87177,0.0,0.0,0.40948486328125,0.06201171875,0.91650390625,2.49725341796875,-5.18890380859375,-10.946044921875,5178461.538461538,107910402.93040292,59363736.26373626,79.86944,1.0,1.0,1.0,1.0,1.0,25.0,,0 days 00:00:00.064000
2023-11-09 13:30:33.413,1.2343463,0.8251935,0.8365637,0.96509147,1.06379,0.29216725,0.061660174,0.8358942,1.1043135,0.4952697,0.31293625,0.64398175,0.7852596,0.338585,0.40854785,0.7130933,0.60765433,-0.085557505,0.09135807,0.7907532,826.8132,843.3333,824.3956,838.0952,847.3626,0.0,0.0,0.40948486328125,0.06201171875,0.91650390625,2.49725341796875,-5.18890380859375,-10.946044921875,5178461.538461538,107910402.93040292,59363736.26373626,79.86944,1.0,1.0,1.0,1.0,1.0,25.0,,0 days 00:00:00
2023-11-09 13:30:33.414,1.2343463,0.8251935,0.8365637,0.96509147,1.06379,0.29216725,0.061660174,0.8358942,1.1043135,0.4952697,0.31293625,0.64398175,0.7852596,0.338585,0.40854785,0.7130933,0.60765433,-0.085557505,0.09135807,0.7907532,841.7216,844.94507,830.0366,841.31866,823.9927,0.0,0.0,0.40948486328125,0.06201171875,0.91650390625,2.49725341796875,-5.18890380859375,-10.946044921875,5178461.538461538,107910402.93040292,59363736.26373626,79.86944,1.0,1.0,1.0,1.0,1.0,25.0,,0 days 00:00:00.001000
2023-11-09 13:30:33.414,1.2343463,0.8251935,0.8365637,0.96509147,1.06379,0.29216725,0.061660174,0.8358942,1.1043135,0.4952697,0.31293625,0.64398175,0.7852596,0.338585,0.40854785,0.7130933,0.60765433,-0.085557505,0.09135807,0.7907532,865.4945,850.18317,830.0366,814.3223,724.0659,0.0,0.0,0.40948486328125,0.06201171875,0.91650390625,2.49725341796875,-5.18890380859375,-10.946044921875,5178461.538461538,107910402.93040292,59363736.26373626,79.86944,1.0,1.0,1.0,1.0,1.0,25.0,,0 days 00:00:00
2023-11-09 13:30:33.415,1.2343463,0.8251935,0.8365637,0.96509147,1.06379,0.29216725,0.061660174,0.8358942,1.1043135,0.4952697,0.31293625,0.64398175,0.7852596,0.338585,0.40854785,0.7130933,0.60765433,-0.085557505,0.09135807,0.7907532,856.2271,849.7802,825.6044,793.7729,726.4835,0.0,0.0,0.40948486328125,0.06201171875,0.91650390625,2.49725341796875,-5.18890380859375,-10.946044921875,5178461.538461538,107910402.93040292,59363736.26373626,79.86944,1.0,1.0,1.0,1.0,1.0,25.0,,0 days 00:00:00.001000
2023-11-09 13:30:33.415,1.2343463,0.8251935,0.8365637,0.96509147,1.06379,0.29216725,0.061660174,0.8358942,1.1043135,0.4952697,0.31293625,0.64398175,0.7852596,0.338585,0.40854785,0.7130933,0.60765433,-0.085557505,0.09135807,0.7907532,841.31866,834.4689,821.5751,825.2015,963.00366,0.0,0.0,0.40948486328125,0.06201171875,0.91650390625,2.49725341796875,-5.18890380859375,-10.946044921875,5178461.538461538,107910402.93040292,59363736.26373626,79.86944,1.0,1.0,1.0,1.0,1.0,25.0,,0 days 00:00:00
2023-11-09 13:30:33.416,1.2343463,0.8251935,0.8365637,0.96509147,1.06379,0.29216725,0.061660174,0.8358942,1.1043135,0.4952697,0.31293625,0.64398175,0.7852596,0.338585,0.40854785,0.7130933,0.60765433,-0.085557505,0.09135807,0.7907532,853.00366,831.6484,826.0073,848.97437,1002.49084,0.0,0.0,0.40948486328125,0.06201171875,0.91650390625,2.49725341796875,-5.18890380859375,-10.946044921875,5178461.538461538,107910402.93040292,59363736.26373626,79.86944,1.0,1.0,1.0,1.0,1.0,25.0,,0 days 00:00:00.001000
2023-11-09 13:30:33.416,1.2343463,0.8251935,0.8365637,0.96509147,1.06379,0.29216725,0.061660174,0.8358942,1.1043135,0.4952697,0.31293625,0.64398175,0.7852596,0.338585,0.40854785,0.7130933,0.60765433,-0.085557505,0.09135807,0.7907532,849.3773,844.1392,838.49817,849.3773,707.5458,0.0,0.0,0.40948486328125,0.06201171875,0.91650390625,2.49725341796875,-5.18890380859375,-10.946044921875,5178461.538461538,107910402.93040292,59363736.26373626,79.86944,1.0,1.0,1.0,1.0,1.0,25.0,,0 days 00:00:00
2023-11-09 13:30:33.417,1.2343463,0.8251935,0.8365637,0.96509147,1.06379,0.29216725,0.061660174,0.8358942,1.1043135,0.4952697,0.31293625,0.64398175,0.7852596,0.338585,0.40854785,0.7130933,0.60765433,-0.085557505,0.09135807,0.7907532,855.42126,846.1539,838.9011,857.03296,729.707,0.0,0.0,0.40948486328125,0.06201171875,0.91650390625,2.49725341796875,-5.18890380859375,-10.946044921875,5178461.538461538,107910402.93040292,59363736.26373626,79.86944,1.0,1.0,1.0,1.0,1.0,25.0,,0 days 00:00:00.001000
2023-11-09 13:30:33.417,1.2343463,0.8251935,0.8365637,0.96509147,1.06379,0.29216725,0.061660174,0.8358942,1.1043135,0.4952697,0.31293625,0.64398175,0.7852596,0.338585,0.40854785,0.7130933,0.60765433,-0.085557505,0.09135807,0.7907532,877.5824,841.7216,829.2308,850.58606,784.10254,0.0,0.0,0.40948486328125,0.06201171875,0.91650390625,2.49725341796875,-5.18890380859375,-10.946044921875,5178461.538461538,107910402.93040292,59363736.26373626,79.86944,1.0,1.0,1.0,1.0,1.0,25.0,,0 days 00:00:00
