TimeStamp,Delta_TP9,Delta_AF7,Delta_AF8,Delta_TP10,Theta_TP9,Theta_AF7,Theta_AF8,Theta_TP10,Alpha_TP9,Alpha_AF7,Alpha_AF8,Alpha_TP10,Beta_TP9,Beta_AF7,Beta_AF8,Beta_TP10,Gamma_TP9,Gamma_AF7,Gamma_AF8,Gamma_TP10,RAW_TP9,RAW_AF7,RAW_AF8,RAW_TP10,AUX_RIGHT,Mellow,Concentration,Accelerometer_X,Accelerometer_Y,Accelerometer_Z,Gyro_X,Gyro_Y,Gyro_Z,PPG_Ambient,PPG_IR,PPG_Red,Heart_Rate,HeadBandOn,HSI_TP9,HSI_AF7,HSI_AF8,HSI_TP10,Battery,Elements,TimeDifference
2023-11-09 13:16:38.451,0.33964488,0.6584747,0.51611936,0.87924397,-0.19539838,0.4254353,0.10500152,0.5812609,0.42611682,0.83485854,0.3446543,0.45692608,0.92865574,0.13375881,0.20261556,0.9668024,0.79150826,-0.30374646,-0.2806233,0.7918914,788.1319,799.41394,755.4945,788.1319,721.2454,0.0,100.0,0.28253173828125,0.0615234375,0.966064453125,2.51220703125,-4.9945068359375,-1.203765869140625,1725347.9853479853,105308278.38827838,62947399.26739927,79.86944,1.0,1.0,1.0,1.0,1.0,25.0,,0 days 00:00:00.028000
2023-11-09 13:16:38.452,0.33964488,0.69304866,0.5228629,0.87924397,-0.19539838,0.4343745,0.10982922,0.5812609,0.42611682,0.83485854,0.340982,0.45692608,0.92865574,0.13162382,0.18201838,0.9668024,0.79150826,-0.32067135,-0.2808989,0.7918914,795.78754,794.17584,757.1062,783.2967,699.89014,0.0,100.0,0.28253173828125,0.0615234375,0.966064453125,2.51220703125,-4.9945068359375,-1.203765869140625,1725347.9853479853,105308278.38827838,62947399.26739927,79.86944,1.0,1.0,1.0,1.0,1.0,25.0,,0 days 00:00:00.001000
2023-11-09 13:16:38.454,0.33964488,0.69304866,0.5228629,0.87924397,-0.19539838,0.4343745,0.10982922,0.5812609,0.42611682,0.83485854,0.340982,0.45692608,0.92865574,0.13162382,0.18201838,0.9668024,0.79150826,-0.32067135,-0.2808989,0.7918914,799.81683,792.5641,763.95605,809.89014,693.8461,0.0,100.0,0.28253173828125,0.0615234375,0.966064453125,2.51220703125,-4.9945068359375,-1.203765869140625,1725347.9853479853,105308278.38827838,62947399.26739927,79.86944,1.0,1.0,1.0,1.0,1.0,25.0,,0 days 00:00:00.002000
2023-11-09 13:16:38.454,0.33964488,0.69304866,0.5228629,0.87924397,-0.19539838,0.4343745,0.10982922,0.5812609,0.42611682,0.83485854,0.340982,0.45692608,0.92865574,0.13162382,0.18201838,0.9668024,0.79150826,-0.32067135,-0.2808989,0.7918914,797.8022,785.7143,763.95605,808.2784,674.10254,0.0,100.0,0.28253173828125,0.0615234375,0.966064453125,2.51220703125,-4.9945068359375,-1.203765869140625,1725347.9853479853,105308278.38827838,62947399.26739927,79.86944,1.0,1.0,1.0,1.0,1.0,25.0,,0 days 00:00:00
2023-11-09 13:16:38.455,0.33964488,0.69304866,0.5228629,0.87924397,-0.19539838,0.4343745,0.10982922,0.5812609,0.42611682,0.83485854,0.340982,0.45692608,0.92865574,0.13162382,0.18201838,0.9668024,0.79150826,-0.32067135,-0.2808989,0.7918914,781.28204,786.9231,759.92676,787.326,759.12085,0.0,100.0,0.28253173828125,0.0615234375,0.966064453125,2.51220703125,-4.9945068359375,-1.203765869140625,1725347.9853479853,105308278.38827838,62947399.26739927,79.86944,1.0,1.0,1.0,1.0,1.0,25.0,,0 days 00:00:00.001000
2023-11-09 13:16:38.455,0.33964488,0.69304866,0.5228629,0.87924397,-0.19539838,0.4343745,0.10982922,0.5812609,0.42611682,0.83485854,0.340982,0.45692608,0.92865574,0.13162382,0.18201838,0.9668024,0.79150826,-0.32067135,-0.2808989,0.7918914,770.0,789.34064,760.32965,786.9231,872.74725,0.0,100.0,0.28253173828125,0.0615234375,0.966064453125,2.51220703125,-4.9945068359375,-1.203765869140625,1725347.9853479853,105308278.38827838,62947399.26739927,79.86944,1.0,1.0,1.0,1.0,1.0,25.0,,0 days 00:00:00
2023-11-09 13:16:38.455,0.33964488,0.69304866,0.5228629,0.87924397,-0.19539838,0.4343745,0.10982922,0.5812609,0.42611682,0.83485854,0.340982,0.45692608,0.92865574,0.13162382,0.18201838,0.9668024,0.79150826,-0.32067135,-0.2808989,0.7918914,791.3553,788.93774,763.95605,795.38464,864.68866,0.0,100.0,0.28253173828125,0.0615234375,0.966064453125,2.51220703125,-4.9945068359375,-1.203765869140625,1725347.9853479853,105308278.38827838,62947399.26739927,79.86944,1.0,1.0,1.0,1.0,1.0,25.0,,0 days 00:00:00
2023-11-09 13:16:38.456,0.33964488,0.69304866,0.5228629,0.87924397,-0.19539838,0.4343745,0.10982922,0.5812609,0.42611682,0.83485854,0.340982,0.45692608,0.92865574,0.13162382,0.18201838,0.9668024,0.79150826,-0.32067135,-0.2808989,0.7918914,780.07324,788.1319,766.3736,795.78754,804.65204,0.0,100.0,0.28253173828125,0.0615234375,0.966064453125,2.51220703125,-4.9945068359375,-1.203765869140625,1725347.9853479853,105308278.38827838,62947399.26739927,79.86944,1.0,1.0,1.0,1.0,1.0,25.0,,0 days 00:00:00.001000
2023-11-09 13:16:38.456,0.33964488,0.69304866,0.5228629,0.87924397,-0.19539838,0.4343745,0.10982922,0.5812609,0.42611682,0.83485854,0.340982,0.45692608,0.92865574,0.13162382,0.18201838,0.9668024,0.79150826,-0.32067135,-0.2808989,0.7918914,768.7912,787.72894,765.56775,790.14655,819.9634,0.0,100.0,0.28253173828125,0.0615234375,0.966064453125,2.51220703125,-4.9945068359375,-1.203765869140625,1725347.9853479853,105308278.38827838,62947399.26739927,79.86944,1.0,1.0,1.0,1.0,1.0,25.0,,0 days 00:00:00
2023-11-09 13:16:38.456,0.33964488,0.69304866,0.5228629,0.87924397,-0.19539838,0.4343745,0.10982922,0.5812609,0.42611682,0.83485854,0.340982,0.45692608,0.92865574,0.13162382,0.18201838,0.9668024,0.79150826,-0.32067135,-0.2808989,0.7918914,777.6557,786.1172,766.77655,817.1429,1068.5714,0.0,100.0,0.28253173828125,0.0615234375,0.966064453125,2.51220703125,-4.9945068359375,-1.203765869140625,1725347.9853479853,105308278.38827838,62947399.26739927,79.86944,1.0,1.0,1.0,1.0,1.0,25.0,,0 days 00:00:00
2023-11-09 13:16:38.457,0.33964488,0.69304866,0.5228629,0.87924397,-0.19539838,0.4343745,0.10982922,0.5812609,0.42611682,0.83485854,0.340982,0.45692608,0.92865574,0.13162382,0.18201838,0.9668024,0.79150826,-0.32067135,-0.2808989,0.7918914,788.1319,787.72894,765.9707,814.7253,1074.2124,0.0,100.0,0.28253173828125,0.0615234375,0.966064453125,2.51220703125,-4.9945068359375,-1.203765869140625,1725347.9853479853,105308278.38827838,62947399.26739927,79.86944,1.0,1.0,1.0,1.0,1.0,25.0,,0 days 00:00:00.001000
2023-11-09 13:16:38.457,0.33964488,0.69304866,0.5228629,0.87924397,-0.19539838,0.4343745,0.10982922,0.5812609,0.42611682,0.83485854,0.340982,0.45692608,0.92865574,0.13162382,0.18201838,0.9668024,0.79150826,-0.32067135,-0.2808989,0.7918914,784.90845,792.5641,766.3736,793.36993,742.6007,0.0,100.0,0.28253173828125,0.0615234375,0.966064453125,2.51220703125,-4.9945068359375,-1.203765869140625,1725347.9853479853,105308278.38827838,62947399.26739927,79.86944,1.0,1.0,1.0,1.0,1.0,25.0,,0 days 00:00:00
2023-11-09 13:16:38.522,0.33964488,0.69304866,0.5228629,0.87924397,-0.19539838,0.4343745,0.10982922,0.5812609,0.42611682,0.83485854,0.340982,0.45692608,0.92865574,0.13162382,0.18201838,0.9668024,0.79150826,-0.32067135,-0.2808989,0.7918914,781.685,791.3553,769.59705,790.14655,650.32965,0.0,100.0,0.27606201171875,0.05694580078125,0.9603271484375,2.758941650390625,-4.78515625,-1.136474609375,1725347.9853479853,105308278.38827838,62947399.26739927,79.86944,1.0,1.0,1.0,1.0,1.0,25.0,,0 days 00:00:00.065000
2023-11-09 13:16:38.523,0.33964488,0.69304866,0.5228629,0.87924397,-0.19539838,0.4343745,0.10982922,0.5812609,0.42611682,0.83485854,0.340982,0.45692608,0.92865574,0.13162382,0.18201838,0.9668024,0.79150826,-0.32067135,-0.2808989,0.7918914,802.23444,793.7729,770.0,793.7729,680.14655,0.0,100.0,0.27606201171875,0.05694580078125,0.9603271484375,2.758941650390625,-4.78515625,-1.136474609375,1725347.9853479853,105308278.38827838,62947399.26739927,79.86944,1.0,1.0,1.0,1.0,1.0,25.0,,0 days 00:00:00.001000
2023-11-09 13:16:38.523,0.33964488,0.69304866,0.5228629,0.87924397,-0.19539838,0.4343745,0.10982922,0.5812609,0.42611682,0.83485854,0.340982,0.45692608,0.92865574,0.13162382,0.18201838,0.9668024,0.79150826,-0.32067135,-0.2808989,0.7918914,811.9048,800.2198,774.0293,811.9048,669.67035,0.0,100.0,0.27606201171875,0.05694580078125,0.9603271484375,2.758941650390625,-4.78515625,-1.136474609375,1725347.9853479853,105308278.38827838,62947399.26739927,79.86944,1.0,1.0,1.0,1.0,1.0,25.0,,0 days 00:00:00
2023-11-09 13:16:38.524,0.33964488,0.69304866,0.5228629,0.87924397,-0.19539838,0.4343745,0.10982922,0.5812609,0.42611682,0.83485854,0.340982,0.45692608,0.92865574,0.13162382,0.18201838,0.9668024,0.79150826,-0.32067135,-0.2808989,0.7918914,795.38464,796.1905,774.0293,807.0696,712.381,0.0,100.0,0.27606201171875,0.05694580078125,0.9603271484375,2.758941650390625,-4.78515625,-1.136474609375,1725347.9853479853,105308278.38827838,62947399.26739927,79.86944,1.0,1.0,1.0,1.0,1.0,25.0,,0 days 00:00:00.001000
2023-11-09 13:16:38.525,0.33964488,0.69304866,0.5228629,0.87924397,-0.19539838,0.4343745,0.10982922,0.5812609,0.42611682,0.83485854,0.340982,0.45692608,0.92865574,0.13162382,0.18201838,0.9668024,0.79150826,-0.32067135,-0.2808989,0.7918914,787.326,793.7729,770.80585,794.17584,792.96704,0.0,100.0,0.27606201171875,0.05694580078125,0.9603271484375,2.758941650390625,-4.78515625,-1.136474609375,1725347.9853479853,105308278.38827838,62947399.26739927,79.86944,1.0,1.0,1.0,1.0,1.0,25.0,,0 days 00:00:00.001000
2023-11-09 13:16:38.525,0.33964488,0.69304866,0.5228629,0.87924397,-0.19539838,0.4343745,0.10982922,0.5812609,0.42611682,0.83485854,0.340982,0.45692608,0.92865574,0.13162382,0.18201838,0.9668024,0.79150826,-0.32067135,-0.2808989,0.7918914,785.31134,795.78754,774.0293,825.6044,805.8608,0.0,100.0,0.27606201171875,0.05694580078125,0.9603271484375,2.758941650390625,-4.78515625,-1.136474609375,1725347.9853479853,105308278.38827838,62947399.26739927,79.86944,1.0,1.0,1.0,1.0,1.0,25.0,,0 days 00:00:00
2023-11-09 13:16:38.526,0.33964488,0.69304866,0.5228629,0.87924397,-0.19539838,0.4343745,0.10982922,0.5812609,0.42611682,0.83485854,0.340982,0.45692608,0.92865574,0.13162382,0.18201838,0.9668024,0.79150826,-0.32067135,-0.2808989,0.7918914,792.1612,794.57874,771.2088,825.6044,794.9817,0.0,100.0,0.27606201171875,0.05694580078125,0.9603271484375,2.758941650390625,-4.78515625,-1.136474609375,1725347.9853479853,105308278.38827838,62947399.26739927,79.86944,1.0,1.0,1.0,1.0,1.0,25.0,,0 days 00:00:00.001000
2023-11-09 13:16:38.526,0.33964488,0.69304866,0.5228629,0.87924397,-0.19539838,0.4343745,0.10982922,0.5812609,0.42611682,0.83485854,0.340982,0.45692608,0.92865574,0.13162382,0.18201838,0.9668024,0.79150826,-0.32067135,-0.2808989,0.7918914,809.89014,796.99634,767.98535,804.2491,763.95605,0.0,100.0,0.27606201171875,0.05694580078125,0.9603271484375,2.758941650390625,-4.78515625,-1.136474609375,1725347.9853479853,105308278.38827838,62947399.26739927,79.86944,1.0,1.0,1.0,1.0,1.0,25.0,,0 days 00:00:00
2023-11-09 13:16:38.527,0.33964488,0.69304866,0.5228629,0.87924397,-0.19539838,0.4343745,0.10982922,0.5812609,0.42611682,0.83485854,0.340982,0.45692608,0.92865574,0.13162382,0.18201838,0.9668024,0.79150826,-0.32067135,-0.2808989,0.7918914,803.44324,792.5641,772.01465,827.2161,898.1319,0.0,100.0,0.27606201171875,0.05694580078125,0.9603271484375,2.758941650390625,-4.78515625,-1.136474609375,1725347.9853479853,105308278.38827838,62947399.26739927,79.86944,1.0,1.0,1.0,1.0,1.0,25.0,,0 days 00:00:00.001000
2023-11-09 13:16:38.527,0.33964488,0.69304866,0.5228629,0.87924397,-0.19539838,0.4343745,0.10982922,0.5812609,0.42611682,0.83485854,0.340982,0.45692608,0.92865574,0.13162382,0.18201838,0.9668024,0.79150826,-0.32067135,-0.2808989,0.7918914,798.20514,793.36993,773.6264,840.5128,900.9524,0.0,100.0,0.27606201171875,0.05694580078125,0.9603271484375,2.758941650390625,-4.78515625,-1.136474609375,1725347.9853479853,105308278.38827838,62947399.26739927,79.86944,1.0,1.0,1.0,1.0,1.0,25.0,,0 days 00:00:00
2023-11-09 13:16:38.528,0.33964488,0.69304866,0.5228629,0.87924397,-0.19539838,0.4343745,0.10982922,0.5812609,0.42611682,0.83485854,0.340982,0.45692608,0.92865574,0.13162382,0.18201838,0.9668024,0.79150826,-0.32067135,-0.2808989,0.7918914,802.23444,798.20514,770.80585,817.5458,722.4542,0.0,100.0,0.27606201171875,0.05694580078125,0.9603271484375,2.758941650390625,-4.78515625,-1.136474609375,1725347.9853479853,105308278.38827838,62947399.26739927,79.86944,1.0,1.0,1.0,1.0,1.0,25.0,,0 days 00:00:00.001000
2023-11-09 13:16:38.529,0.33964488,0.69304866,0.5228629,0.87924397,-0.19539838,0.4343745,0.10982922,0.5812609,0.42611682,0.83485854,0.340982,0.45692608,0.92865574,0.13162382,0.18201838,0.9668024,0.79150826,-0.32067135,-0.2808989,0.7918914,795.78754,800.6227,765.9707,818.3516,882.4176,0.0,100.0,0.27606201171875,0.05694580078125,0.9603271484375,2.758941650390625,-4.78515625,-1.136474609375,1725347.9853479853,105308278.38827838,62947399.26739927,79.86944,1.0,1.0,1.0,1.0,1.0,25.0,,0 days 00:00:00.001000
2023-11-09 13:16:38.567,0.33964488,0.69304866,0.5228629,0.87924397,-0.19539838,0.4343745,0.10982922,0.5812609,0.42611682,0.83485854,0.340982,0.45692608,0.92865574,0.13162382,0.18201838,0.9668024,0.79150826,-0.32067135,-0.2808989,0.7918914,788.93774,798.60803,769.59705,832.4542,923.91943,0.0,100.0,0.27325439453125,0.06365966796875,0.95684814453125,2.893524169921875,-5.42816162109375,-0.07476806640625,1724542.1245421246,105276043.95604396,62983663.003663,79.86944,1.0,1.0,1.0,1.0,1.0,25.0,,0 days 00:00:00.038000
2023-11-09 13:16:38.568,0.33964488,0.69304866,0.5228629,0.87924397,-0.19539838,0.4343745,0.10982922,0.5812609,0.42611682,0.83485854,0.340982,0.45692608,0.92865574,0.13162382,0.18201838,0.9668024,0.79150826,-0.32067135,-0.2808989,0.7918914,781.28204,792.96704,769.19415,825.6044,725.6777,0.0,100.0,0.27325439453125,0.06365966796875,0.95684814453125,2.893524169921875,-5.42816162109375,-0.07476806640625,1724542.1245421246,105276043.95604396,62983663.003663,79.86944,1.0,1.0,1.0,1.0,1.0,25.0,,0 days 00:00:00.001000
2023-11-09 13:16:38.569,0.33964488,0.69304866,0.5228629,0.87924397,-0.19539838,0.4343745,0.10982922,0.5812609,0.42611682,0.83485854,0.340982,0.45692608,0.92865574,0.13162382,0.18201838,0.9668024,0.79150826,-0.32067135,-0.2808989,0.7918914,777.6557,793.36993,763.95605,816.337,655.56775,0.0,100.0,0.27325439453125,0.06365966796875,0.95684814453125,2.893524169921875,-5.42816162109375,-0.07476806640625,1724542.1245421246,105276043.95604396,62983663.003663,79.86944,1.0,1.0,1.0,1.0,1.0,25.0,,0 days 00:00:00.001000
2023-11-09 13:16:38.569,0.33964488,0.73595643,0.51955295,0.87924397,-0.19539838,0.4376103,0.111403786,0.5812609,0.42611682,0.83485854,0.33810836,0.45692608,0.92865574,0.12823115,0.16058771,0.9668024,0.79150826,-0.33299875,-0.28047594,0.7918914,802.23444,797.8022,767.98535,828.022,654.35895,0.0,100.0,0.27325439453125,0.06365966796875,0.95684814453125,2.893524169921875,-5.42816162109375,-0.07476806640625,1724542.1245421246,105276043.95604396,62983663.003663,79.86944,1.0,1.0,1.0,1.0,1.0,25.0,,0 days 00:00:00
2023-11-09 13:16:38.571,0.33964488,0.73595643,0.51955295,0.87924397,-0.19539838,0.4376103,0.111403786,0.5812609,0.42611682,0.83485854,0.33810836,0.45692608,0.92865574,0.12823115,0.16058771,0.9668024,0.79150826,-0.33299875,-0.28047594,0.7918914,812.3077,800.6227,770.0,826.0073,696.6667,0.0,100.0,0.27325439453125,0.06365966796875,0.95684814453125,2.893524169921875,-5.42816162109375,-0.07476806640625,1724542.1245421246,105276043.95604396,62983663.003663,79.86944,1.0,1.0,1.0,1.0,1.0,25.0,,0 days 00:00:00.002000
2023-11-09 13:16:38.571,0.33964488,0.73595643,0.51955295,0.87924397,-0.19539838,0.4376103,0.111403786,0.5812609,0.42611682,0.83485854,0.33810836,0.45692608,0.92865574,0.12823115,0.16058771,0.9668024,0.79150826,-0.33299875,-0.28047594,0.7918914,804.65204,799.41394,763.95605,800.2198,823.9927,0.0,100.0,0.27325439453125,0.06365966796875,0.95684814453125,2.893524169921875,-5.42816162109375,-0.07476806640625,1724542.1245421246,105276043.95604396,62983663.003663,79.86944,1.0,1.0,1.0,1.0,1.0,25.0,,0 days 00:00:00
2023-11-09 13:16:38.572,0.33964488,0.73595643,0.51955295,0.87924397,-0.19539838,0.4376103,0.111403786,0.5812609,0.42611682,0.83485854,0.33810836,0.45692608,0.92865574,0.12823115,0.16058771,0.9668024,0.79150826,-0.33299875,-0.28047594,0.7918914,809.89014,799.81683,767.1795,820.7692,909.81683,0.0,100.0,0.27325439453125,0.06365966796875,0.95684814453125,2.893524169921875,-5.42816162109375,-0.07476806640625,1724542.1245421246,105276043.95604396,62983663.003663,79.86944,1.0,1.0,1.0,1.0,1.0,25.0,,0 days 00:00:00.001000
2023-11-09 13:16:38.572,0.33964488,0.73595643,0.51955295,0.87924397,-0.19539838,0.4376103,0.111403786,0.5812609,0.42611682,0.83485854,0.33810836,0.45692608,0.92865574,0.12823115,0.16058771,0.9668024,0.79150826,-0.33299875,-0.28047594,0.7918914,794.17584,801.8315,768.7912,827.619,933.1868,0.0,100.0,0.27325439453125,0.06365966796875,0.95684814453125,2.893524169921875,-5.42816162109375,-0.07476806640625,1724542.1245421246,105276043.95604396,62983663.003663,79.86944,1.0,1.0,1.0,1.0,1.0,25.0,,0 days 00:00:00
2023-11-09 13:16:38.573,0.33964488,0.73595643,0.51955295,0.87924397,-0.19539838,0.4376103,0.111403786,0.5812609,0.42611682,0.83485854,0.33810836,0.45692608,0.92865574,0.12823115,0.16058771,0.9668024,0.79150826,-0.33299875,-0.28047594,0.7918914,787.326,796.99634,764.7619,826.0073,1113.6996,0.0,100.0,0.27325439453125,0.06365966796875,0.95684814453125,2.893524169921875,-5.42816162109375,-0.07476806640625,1724542.1245421246,105276043.95604396,62983663.003663,79.86944,1.0,1.0,1.0,1.0,1.0,25.0,,0 days 00:00:00.001000
2023-11-09 13:16:38.573,0.33964488,0.73595643,0.51955295,0.87924397,-0.19539838,0.4376103,0.111403786,0.5812609,0.42611682,0.83485854,0.33810836,0.45692608,0.92865574,0.12823115,0.16058771,0.9668024,0.79150826,-0.33299875,-0.28047594,0.7918914,794.17584,793.7729,764.7619,812.3077,966.2271,0.0,100.0,0.27325439453125,0.06365966796875,0.95684814453125,2.893524169921875,-5.42816162109375,-0.07476806640625,1724542.1245421246,105276043.95604396,62983663.003663,79.86944,1.0,1.0,1.0,1.0,1.0,25.0,,0 days 00:00:00
2023-11-09 13:16:38.573,0.33964488,0.73595643,0.51955295,0.87924397,-0.19539838,0.4376103,0.111403786,0.5812609,0.42611682,0.83485854,0.33810836,0.45692608,0.92865574,0.12823115,0.16058771,0.9668024,0.79150826,-0.33299875,-0.28047594,0.7918914,805.8608,799.011,763.5531,784.5055,735.7509,0.0,100.0,0.27325439453125,0.06365966796875,0.95684814453125,2.893524169921875,-5.42816162109375,-0.07476806640625,1724542.1245421246,105276043.95604396,62983663.003663,79.86944,1.0,1.0,1.0,1.0,1.0,25.0,,0 days 00:00:00
2023-11-09 13:16:38.574,0.33964488,0.73595643,0.51955295,0.87924397,-0.19539838,0.4376103,0.111403786,0.5812609,0.42611682,0.83485854,0.33810836,0.45692608,0.92865574,0.12823115,0.16058771,0.9668024,0.79150826,-0.33299875,-0.28047594,0.7918914,798.20514,798.20514,763.95605,794.17584,770.80585,0.0,100.0,0.27325439453125,0.06365966796875,0.95684814453125,2.893524169921875,-5.42816162109375,-0.07476806640625,1724542.1245421246,105276043.95604396,62983663.003663,79.86944,1.0,1.0,1.0,1.0,1.0,25.0,,0 days 00:00:00.001000
2023-11-09 13:16:38.596,0.33964488,0.73595643,0.51955295,0.87924397,-0.19539838,0.4376103,0.111403786,0.5812609,0.42611682,0.83485854,0.33810836,0.45692608,0.92865574,0.12823115,0.16058771,0.9668024,0.79150826,-0.33299875,-0.28047594,0.7918914,792.1612,795.78754,764.35895,790.54944,726.8865,0.0,100.0,0.281005859375,0.05596923828125,0.9560546875,3.043060302734375,-6.527252197265625,-0.710296630859375,1724542.1245421246,105276043.95604396,62983663.003663,79.86944,1.0,1.0,1.0,1.0,1.0,25.0,,0 days 00:00:00.022000
2023-11-09 13:16:38.597,0.33964488,0.73595643,0.51955295,0.87924397,-0.19539838,0.4376103,0.111403786,0.5812609,0.42611682,0.83485854,0.33810836,0.45692608,0.92865574,0.12823115,0.16058771,0.9668024,0.79150826,-0.33299875,-0.28047594,0.7918914,793.36993,796.5934,764.35895,792.96704,721.2454,0.0,100.0,0.281005859375,0.05596923828125,0.9560546875,3.043060302734375,-6.527252197265625,-0.710296630859375,1724542.1245421246,105276043.95604396,62983663.003663,79.86944,1.0,1.0,1.0,1.0,1.0,25.0,,0 days 00:00:00.001000
2023-11-09 13:16:38.597,0.33964488,0.73595643,0.51955295,0.87924397,-0.19539838,0.4376103,0.111403786,0.5812609,0.42611682,0.83485854,0.33810836,0.45692608,0.92865574,0.12823115,0.16058771,0.9668024,0.79150826,-0.33299875,-0.28047594,0.7918914,795.38464,801.02563,765.9707,798.20514,889.2674,0.0,100.0,0.281005859375,0.05596923828125,0.9560546875,3.043060302734375,-6.527252197265625,-0.710296630859375,1724542.1245421246,105276043.95604396,62983663.003663,79.86944,1.0,1.0,1.0,1.0,1.0,25.0,,0 days 00:00:00
2023-11-09 13:16:38.597,0.33964488,0.73595643,0.51955295,0.87924397,-0.19539838,0.4376103,0.111403786,0.5812609,0.42611682,0.83485854,0.33810836,0.45692608,0.92865574,0.12823115,0.16058771,0.9668024,0.79150826,-0.33299875,-0.28047594,0.7918914,803.44324,799.011,766.77655,801.8315,912.23444,0.0,100.0,0.281005859375,0.05596923828125,0.9560546875,3.043060302734375,-6.527252197265625,-0.710296630859375,1724542.1245421246,105276043.95604396,62983663.003663,79.86944,1.0,1.0,1.0,1.0,1.0,25.0,,0 days 00:00:00
2023-11-09 13:16:38.598,0.33964488,0.73595643,0.51955295,0.87924397,-0.19539838,0.4376103,0.111403786,0.5812609,0.42611682,0.83485854,0.33810836,0.45692608,0.92865574,0.12823115,0.16058771,0.9668024,0.79150826,-0.33299875,-0.28047594,0.7918914,813.1135,801.8315,770.40295,814.7253,798.20514,0.0,100.0,0.281005859375,0.05596923828125,0.9560546875,3.043060302734375,-6.527252197265625,-0.710296630859375,1724542.1245421246,105276043.95604396,62983663.003663,79.86944,1.0,1.0,1.0,1.0,1.0,25.0,,0 days 00:00:00.001000
2023-11-09 13:16:38.598,0.33964488,0.73595643,0.51955295,0.87924397,-0.19539838,0.4376103,0.111403786,0.5812609,0.42611682,0.83485854,0.33810836,0.45692608,0.92865574,0.12823115,0.16058771,0.9668024,0.79150826,-0.33299875,-0.28047594,0.7918914,796.99634,807.47253,773.6264,813.91943,709.15753,0.0,100.0,0.281005859375,0.05596923828125,0.9560546875,3.043060302734375,-6.527252197265625,-0.710296630859375,1724542.1245421246,105276043.95604396,62983663.003663,79.86944,1.0,1.0,1.0,1.0,1.0,25.0,,0 days 00:00:00
2023-11-09 13:16:38.598,0.33964488,0.73595643,0.51955295,0.87924397,-0.19539838,0.4376103,0.111403786,0.5812609,0.42611682,0.83485854,0.33810836,0.45692608,0.92865574,0.12823115,0.16058771,0.9668024,0.79150826,-0.33299875,-0.28047594,0.7918914,793.36993,802.6374,774.43225,814.3223,726.4835,0.0,100.0,0.281005859375,0.05596923828125,0.9560546875,3.043060302734375,-6.527252197265625,-0.710296630859375,1724542.1245421246,105276043.95604396,62983663.003663,79.86944,1.0,1.0,1.0,1.0,1.0,25.0,,0 days 00:00:00
2023-11-09 13:16:38.599,0.33964488,0.73595643,0.51955295,0.87924397,-0.19539838,0.4376103,0.111403786,0.5812609,0.42611682,0.83485854,0.33810836,0.45692608,0.92865574,0.12823115,0.16058771,0.9668024,0.79150826,-0.33299875,-0.28047594,0.7918914,809.0842,798.20514,771.2088,804.2491,890.07324,0.0,100.0,0.281005859375,0.05596923828125,0.9560546875,3.043060302734375,-6.527252197265625,-0.710296630859375,1724542.1245421246,105276043.95604396,62983663.003663,79.86944,1.0,1.0,1.0,1.0,1.0,25.0,,0 days 00:00:00.001000
2023-11-09 13:16:38.599,0.33964488,0.73595643,0.51955295,0.87924397,-0.19539838,0.4376103,0.111403786,0.5812609,0.42611682,0.83485854,0.33810836,0.45692608,0.92865574,0.12823115,0.16058771,0.9668024,0.79150826,-0.33299875,-0.28047594,0.7918914,790.54944,799.011,770.80585,782.0879,856.2271,0.0,100.0,0.281005859375,0.05596923828125,0.9560546875,3.043060302734375,-6.527252197265625,-0.710296630859375,1724542.1245421246,105276043.95604396,62983663.003663,79.86944,1.0,1.0,1.0,1.0,1.0,25.0,,0 days 00:00:00
2023-11-09 13:16:38.599,0.33964488,0.73595643,0.51955295,0.87924397,-0.19539838,0.4376103,0.111403786,0.5812609,0.42611682,0.83485854,0.33810836,0.45692608,0.92865574,0.12823115,0.16058771,0.9668024,0.79150826,-0.33299875,-0.28047594,0.7918914,782.0879,802.23444,770.80585,774.83514,702.71063,0.0,100.0,0.281005859375,0.05596923828125,0.9560546875,3.043060302734375,-6.527252197265625,-0.710296630859375,1724542.1245421246,105276043.95604396,62983663.003663,79.86944,1.0,1.0,1.0,1.0,1.0,25.0,,0 days 00:00:00
2023-11-09 13:16:38.600,0.33964488,0.73595643,0.51955295,0.87924397,-0.19539838,0.4376103,0.111403786,0.5812609,0.42611682,0.83485854,0.33810836,0.45692608,0.92865574,0.12823115,0.16058771,0.9668024,0.79150826,-0.33299875,-0.28047594,0.7918914,778.86444,802.23444,766.77655,779.67035,758.71796,0.0,100.0,0.281005859375,0.05596923828125,0.9560546875,3.043060302734375,-6.527252197265625,-0.710296630859375,1724542.1245421246,105276043.95604396,62983663.003663,79.86944,1.0,1.0,1.0,1.0,1.0,25.0,,0 days 00:00:00.001000
2023-11-09 13:16:38.600,0.33964488,0.73595643,0.51955295,0.87924397,-0.19539838,0.4376103,0.111403786,0.5812609,0.42611682,0.83485854,0.33810836,0.45692608,0.92865574,0.12823115,0.16058771,0.9668024,0.79150826,-0.33299875,-0.28047594,0.7918914,788.1319,800.6227,769.59705,785.31134,778.46155,0.0,100.0,0.281005859375,0.05596923828125,0.9560546875,3.043060302734375,-6.527252197265625,-0.710296630859375,1724542.1245421246,105276043.95604396,62983663.003663,79.86944,1.0,1.0,1.0,1.0,1.0,25.0,,0 days 00:00:00
2023-11-09 13:16:38.668,0.33964488,0.73595643,0.51955295,0.87924397,-0.19539838,0.4376103,0.111403786,0.5812609,0.42611682,0.83485854,0.33810836,0.45692608,0.92865574,0.12823115,0.16058771,0.9668024,0.79150826,-0.33299875,-0.28047594,0.7918914,814.7253,803.44324,772.4176,790.9524,783.2967,0.0,100.0,0.281005859375,0.05596923828125,0.9560546875,3.043060302734375,-6.527252197265625,-0.710296630859375,1723736.2637362636,105397728.93772894,62992527.472527474,79.86944,1.0,1.0,1.0,1.0,1.0,25.0,,0 days 00:00:00.068000
2023-11-09 13:16:38.669,0.33964488,0.73595643,0.51955295,0.87924397,-0.19539838,0.4376103,0.111403786,0.5812609,0.42611682,0.83485854,0.33810836,0.45692608,0.92865574,0.12823115,0.16058771,0.9668024,0.79150826,-0.33299875,-0.28047594,0.7918914,815.5311,805.4579,769.59705,784.5055,782.8938,0.0,100.0,0.281005859375,0.05596923828125,0.9560546875,3.043060302734375,-6.527252197265625,-0.710296630859375,1723736.2637362636,105397728.93772894,62992527.472527474,79.86944,1.0,1.0,1.0,1.0,1.0,25.0,,0 days 00:00:00.001000
2023-11-09 13:16:38.670,0.33964488,0.73595643,0.51955295,0.87924397,-0.19539838,0.4376103,0.111403786,0.5812609,0.42611682,0.83485854,0.33810836,0.45692608,0.92865574,0.12823115,0.16058771,0.9668024,0.79150826,-0.33299875,-0.28047594,0.7918914,802.23444,799.41394,769.19415,793.7729,707.1429,0.0,100.0,0.281005859375,0.05596923828125,0.9560546875,3.043060302734375,-6.527252197265625,-0.710296630859375,1723736.2637362636,105397728.93772894,62992527.472527474,79.86944,1.0,1.0,1.0,1.0,1.0,25.0,,0 days 00:00:00.001000
2023-11-09 13:16:38.670,0.33964488,0.73595643,0.51955295,0.87924397,-0.19539838,0.4376103,0.111403786,0.5812609,0.42611682,0.83485854,0.33810836,0.45692608,0.92865574,0.12823115,0.16058771,0.9668024,0.79150826,-0.33299875,-0.28047594,0.7918914,801.02563,797.8022,767.98535,796.5934,732.1245,0.0,100.0,0.281005859375,0.05596923828125,0.9560546875,3.043060302734375,-6.527252197265625,-0.710296630859375,1723736.2637362636,105397728.93772894,62992527.472527474,79.86944,1.0,1.0,1.0,1.0,1.0,25.0,,0 days 00:00:00
2023-11-09 13:16:38.671,0.33964488,0.73595643,0.51955295,0.87924397,-0.19539838,0.4376103,0.111403786,0.5812609,0.42611682,0.83485854,0.33810836,0.45692608,0.92865574,0.12823115,0.16058771,0.9668024,0.79150826,-0.33299875,-0.28047594,0.7918914,811.9048,803.0403,766.3736,788.5348,757.1062,0.0,100.0,0.281005859375,0.05596923828125,0.9560546875,3.043060302734375,-6.527252197265625,-0.710296630859375,1723736.2637362636,105397728.93772894,62992527.472527474,79.86944,1.0,1.0,1.0,1.0,1.0,25.0,,0 days 00:00:00.001000
2023-11-09 13:16:38.671,0.33964488,0.77980787,0.5065805,0.87924397,-0.19539838,0.43321267,0.10988076,0.5812609,0.42611682,0.83485854,0.33810836,0.45692608,0.92865574,0.12339183,0.13794397,0.9668024,0.79150826,-0.34816134,-0.2803881,0.7918914,821.1722,802.23444,763.1502,782.49084,743.00366,0.0,100.0,0.281005859375,0.05596923828125,0.9560546875,3.043060302734375,-6.527252197265625,-0.710296630859375,1723736.2637362636,105397728.93772894,62992527.472527474,79.86944,1.0,1.0,1.0,1.0,1.0,25.0,,0 days 00:00:00
2023-11-09 13:16:38.674,0.33964488,0.77980787,0.5065805,0.87924397,-0.19539838,0.43321267,0.10988076,0.5812609,0.42611682,0.83485854,0.33810836,0.45692608,0.92865574,0.12339183,0.13794397,0.9668024,0.79150826,-0.34816134,-0.2803881,0.7918914,800.6227,798.60803,760.7326,782.8938,855.42126,0.0,100.0,0.281005859375,0.05596923828125,0.9560546875,3.043060302734375,-6.527252197265625,-0.710296630859375,1723736.2637362636,105397728.93772894,62992527.472527474,79.86944,1.0,1.0,1.0,1.0,1.0,25.0,,0 days 00:00:00.003000
2023-11-09 13:16:38.675,0.33964488,0.77980787,0.5065805,0.87924397,-0.19539838,0.43321267,0.10988076,0.5812609,0.42611682,0.83485854,0.33810836,0.45692608,0.92865574,0.12339183,0.13794397,0.9668024,0.79150826,-0.34816134,-0.2803881,0.7918914,793.7729,792.96704,752.27106,786.1172,1110.0732,0.0,100.0,0.281005859375,0.05596923828125,0.9560546875,3.043060302734375,-6.527252197265625,-0.710296630859375,1723736.2637362636,105397728.93772894,62992527.472527474,79.86944,1.0,1.0,1.0,1.0,1.0,25.0,,0 days 00:00:00.001000
2023-11-09 13:16:38.675,0.33964488,0.77980787,0.5065805,0.87924397,-0.19539838,0.43321267,0.10988076,0.5812609,0.42611682,0.83485854,0.33810836,0.45692608,0.92865574,0.12339183,0.13794397,0.9668024,0.79150826,-0.34816134,-0.2803881,0.7918914,779.67035,794.9817,753.8828,765.56775,1050.0366,0.0,100.0,0.281005859375,0.05596923828125,0.9560546875,3.043060302734375,-6.527252197265625,-0.710296630859375,1723736.2637362636,105397728.93772894,62992527.472527474,79.86944,1.0,1.0,1.0,1.0,1.0,25.0,,0 days 00:00:00
2023-11-09 13:16:38.676,0.33964488,0.77980787,0.5065805,0.87924397,-0.19539838,0.43321267,0.10988076,0.5812609,0.42611682,0.83485854,0.33810836,0.45692608,0.92865574,0.12339183,0.13794397,0.9668024,0.79150826,-0.34816134,-0.2803881,0.7918914,783.2967,801.8315,766.77655,770.40295,768.3883,0.0,100.0,0.281005859375,0.05596923828125,0.9560546875,3.043060302734375,-6.527252197265625,-0.710296630859375,1723736.2637362636,105397728.93772894,62992527.472527474,79.86944,1.0,1.0,1.0,1.0,1.0,25.0,,0 days 00:00:00.001000
2023-11-09 13:16:38.677,0.33964488,0.77980787,0.5065805,0.87924397,-0.19539838,0.43321267,0.10988076,0.5812609,0.42611682,0.83485854,0.33810836,0.45692608,0.92865574,0.12339183,0.13794397,0.9668024,0.79150826,-0.34816134,-0.2803881,0.7918914,793.36993,797.3993,765.9707,792.5641,822.381,0.0,100.0,0.281005859375,0.05596923828125,0.9560546875,3.043060302734375,-6.527252197265625,-0.710296630859375,1723736.2637362636,105397728.93772894,62992527.472527474,79.86944,1.0,1.0,1.0,1.0,1.0,25.0,,0 days 00:00:00.001000
2023-11-09 13:16:38.677,0.33964488,0.77980787,0.5065805,0.87924397,-0.19539838,0.43321267,0.10988076,0.5812609,0.42611682,0.83485854,0.33810836,0.45692608,0.92865574,0.12339183,0.13794397,0.9668024,0.79150826,-0.34816134,-0.2803881,0.7918914,786.1172,798.60803,763.1502,791.75824,887.25275,0.0,100.0,0.281005859375,0.05596923828125,0.9560546875,3.043060302734375,-6.527252197265625,-0.710296630859375,1723736.2637362636,105397728.93772894,62992527.472527474,79.86944,1.0,1.0,1.0,1.0,1.0,25.0,,0 days 00:00:00
2023-11-09 13:16:38.713,0.33964488,0.77980787,0.5065805,0.87924397,-0.19539838,0.43321267,0.10988076,0.5812609,0.42611682,0.83485854,0.33810836,0.45692608,0.92865574,0.12339183,0.13794397,0.9668024,0.79150826,-0.34816134,-0.2803881,0.7918914,800.6227,799.41394,767.5824,789.7436,710.7692,0.0,100.0,0.2972412109375,0.0660400390625,0.97210693359375,3.46923828125,-7.185211181640625,-0.934600830078125,1723736.2637362636,105397728.93772894,62992527.472527474,79.86944,1.0,1.0,1.0,1.0,1.0,25.0,,0 days 00:00:00.036000
2023-11-09 13:16:38.714,0.33964488,0.77980787,0.5065805,0.87924397,-0.19539838,0.43321267,0.10988076,0.5812609,0.42611682,0.83485854,0.33810836,0.45692608,0.92865574,0.12339183,0.13794397,0.9668024,0.79150826,-0.34816134,-0.2803881,0.7918914,809.0842,799.81683,767.5824,801.02563,631.39197,0.0,100.0,0.2972412109375,0.0660400390625,0.97210693359375,3.46923828125,-7.185211181640625,-0.934600830078125,1723736.2637362636,105397728.93772894,62992527.472527474,79.86944,1.0,1.0,1.0,1.0,1.0,25.0,,0 days 00:00:00.001000
2023-11-09 13:16:38.715,0.33964488,0.77980787,0.5065805,0.87924397,-0.19539838,0.43321267,0.10988076,0.5812609,0.42611682,0.83485854,0.33810836,0.45692608,0.92865574,0.12339183,0.13794397,0.9668024,0.79150826,-0.34816134,-0.2803881,0.7918914,797.8022,801.8315,767.98535,795.78754,710.3663,0.0,100.0,0.2972412109375,0.0660400390625,0.97210693359375,3.46923828125,-7.185211181640625,-0.934600830078125,1723736.2637362636,105397728.93772894,62992527.472527474,79.86944,1.0,1.0,1.0,1.0,1.0,25.0,,0 days 00:00:00.001000
2023-11-09 13:16:38.715,0.33964488,0.77980787,0.5065805,0.87924397,-0.19539838,0.43321267,0.10988076,0.5812609,0.42611682,0.83485854,0.33810836,0.45692608,0.92865574,0.12339183,0.13794397,0.9668024,0.79150826,-0.34816134,-0.2803881,0.7918914,792.96704,798.60803,766.77655,793.7729,735.34796,0.0,100.0,0.2972412109375,0.0660400390625,0.97210693359375,3.46923828125,-7.185211181640625,-0.934600830078125,1723736.2637362636,105397728.93772894,62992527.472527474,79.86944,1.0,1.0,1.0,1.0,1.0,25.0,,0 days 00:00:00
2023-11-09 13:16:38.716,0.33964488,0.77980787,0.5065805,0.87924397,-0.19539838,0.43321267,0.10988076,0.5812609,0.42611682,0.83485854,0.33810836,0.45692608,0.92865574,0.12339183,0.13794397,0.9668024,0.79150826,-0.34816134,-0.2803881,0.7918914,803.8461,798.20514,764.35895,796.5934,685.78754,0.0,100.0,0.2972412109375,0.0660400390625,0.97210693359375,3.46923828125,-7.185211181640625,-0.934600830078125,1723736.2637362636,105397728.93772894,62992527.472527474,79.86944,1.0,1.0,1.0,1.0,1.0,25.0,,0 days 00:00:00.001000
2023-11-09 13:16:38.716,0.33964488,0.77980787,0.5065805,0.87924397,-0.19539838,0.43321267,0.10988076,0.5812609,0.42611682,0.83485854,0.33810836,0.45692608,0.92865574,0.12339183,0.13794397,0.9668024,0.79150826,-0.34816134,-0.2803881,0.7918914,826.0073,798.20514,763.1502,769.59705,747.8388,0.0,100.0,0.2972412109375,0.0660400390625,0.97210693359375,3.46923828125,-7.185211181640625,-0.934600830078125,1723736.2637362636,105397728.93772894,62992527.472527474,79.86944,1.0,1.0,1.0,1.0,1.0,25.0,,0 days 00:00:00
2023-11-09 13:16:38.716,0.33964488,0.77980787,0.5065805,0.87924397,-0.19539838,0.43321267,0.10988076,0.5812609,0.42611682,0.83485854,0.33810836,0.45692608,0.92865574,0.12339183,0.13794397,0.9668024,0.79150826,-0.34816134,-0.2803881,0.7918914,817.9487,794.57874,759.12085,783.2967,956.1539,0.0,100.0,0.2972412109375,0.0660400390625,0.97210693359375,3.46923828125,-7.185211181640625,-0.934600830078125,1723736.2637362636,105397728.93772894,62992527.472527474,79.86944,1.0,1.0,1.0,1.0,1.0,25.0,,0 days 00:00:00
2023-11-09 13:16:38.717,0.33964488,0.77980787,0.5065805,0.87924397,-0.19539838,0.43321267,0.10988076,0.5812609,0.42611682,0.83485854,0.33810836,0.45692608,0.92865574,0.12339183,0.13794397,0.9668024,0.79150826,-0.34816134,-0.2803881,0.7918914,782.8938,792.96704,759.12085,803.0403,963.4066,0.0,100.0,0.2972412109375,0.0660400390625,0.97210693359375,3.46923828125,-7.185211181640625,-0.934600830078125,1723736.2637362636,105397728.93772894,62992527.472527474,79.86944,1.0,1.0,1.0,1.0,1.0,25.0,,0 days 00:00:00.001000
2023-11-09 13:16:38.717,0.33964488,0.77980787,0.5065805,0.87924397,-0.19539838,0.43321267,0.10988076,0.5812609,0.42611682,0.83485854,0.33810836,0.45692608,0.92865574,0.12339183,0.13794397,0.9668024,0.79150826,-0.34816134,-0.2803881,0.7918914,783.2967,793.7729,758.71796,774.0293,816.7399,0.0,100.0,0.2972412109375,0.0660400390625,0.97210693359375,3.46923828125,-7.185211181640625,-0.934600830078125,1723736.2637362636,105397728.93772894,62992527.472527474,79.86944,1.0,1.0,1.0,1.0,1.0,25.0,,0 days 00:00:00
2023-11-09 13:16:38.718,0.33964488,0.77980787,0.5065805,0.87924397,-0.19539838,0.43321267,0.10988076,0.5812609,0.42611682,0.83485854,0.33810836,0.45692608,0.92865574,0.12339183,0.13794397,0.9668024,0.79150826,-0.34816134,-0.2803881,0.7918914,782.0879,793.7729,757.50916,776.8498,774.43225,0.0,100.0,0.2972412109375,0.0660400390625,0.97210693359375,3.46923828125,-7.185211181640625,-0.934600830078125,1723736.2637362636,105397728.93772894,62992527.472527474,79.86944,1.0,1.0,1.0,1.0,1.0,25.0,,0 days 00:00:00.001000
2023-11-09 13:16:38.718,0.33964488,0.77980787,0.5065805,0.87924397,-0.19539838,0.43321267,0.10988076,0.5812609,0.42611682,0.83485854,0.33810836,0.45692608,0.92865574,0.12339183,0.13794397,0.9668024,0.79150826,-0.34816134,-0.2803881,0.7918914,760.32965,793.36993,755.4945,797.3993,800.6227,0.0,100.0,0.2972412109375,0.0660400390625,0.97210693359375,3.46923828125,-7.185211181640625,-0.934600830078125,1723736.2637362636,105397728.93772894,62992527.472527474,79.86944,1.0,1.0,1.0,1.0,1.0,25.0,,0 days 00:00:00
2023-11-09 13:16:38.718,0.33964488,0.77980787,0.5065805,0.87924397,-0.19539838,0.43321267,0.10988076,0.5812609,0.42611682,0.83485854,0.33810836,0.45692608,0.92865574,0.12339183,0.13794397,0.9668024,0.79150826,-0.34816134,-0.2803881,0.7918914,778.86444,794.57874,761.53845,783.2967,711.978,0.0,100.0,0.2972412109375,0.0660400390625,0.97210693359375,3.46923828125,-7.185211181640625,-0.934600830078125,1723736.2637362636,105397728.93772894,62992527.472527474,79.86944,1.0,1.0,1.0,1.0,1.0,25.0,,0 days 00:00:00
2023-11-09 13:16:38.747,0.33964488,0.77980787,0.5065805,0.87924397,-0.19539838,0.43321267,0.10988076,0.5812609,0.42611682,0.83485854,0.33810836,0.45692608,0.92865574,0.12339183,0.13794397,0.9668024,0.79150826,-0.34816134,-0.2803881,0.7918914,794.57874,797.3993,763.5531,774.43225,671.685,0.0,100.0,0.2918701171875,0.06964111328125,0.9627685546875,3.27484130859375,-5.301055908203125,-0.58319091796875,1718095.238095238,105460586.08058608,63009450.54945055,79.86944,1.0,1.0,1.0,1.0,1.0,25.0,,0 days 00:00:00.029000
2023-11-09 13:16:38.748,0.33964488,0.77980787,0.5065805,0.87924397,-0.19539838,0.43321267,0.10988076,0.5812609,0.42611682,0.83485854,0.33810836,0.45692608,0.92865574,0.12339183,0.13794397,0.9668024,0.79150826,-0.34816134,-0.2803881,0.7918914,788.5348,799.011,759.12085,801.4286,726.8865,0.0,100.0,0.2918701171875,0.06964111328125,0.9627685546875,3.27484130859375,-5.301055908203125,-0.58319091796875,1718095.238095238,105460586.08058608,63009450.54945055,79.86944,1.0,1.0,1.0,1.0,1.0,25.0,,0 days 00:00:00.001000
2023-11-09 13:16:38.748,0.33964488,0.77980787,0.5065805,0.87924397,-0.19539838,0.43321267,0.10988076,0.5812609,0.42611682,0.83485854,0.33810836,0.45692608,0.92865574,0.12339183,0.13794397,0.9668024,0.79150826,-0.34816134,-0.2803881,0.7918914,773.22345,796.99634,757.1062,798.60803,718.022,0.0,100.0,0.2918701171875,0.06964111328125,0.9627685546875,3.27484130859375,-5.301055908203125,-0.58319091796875,1718095.238095238,105460586.08058608,63009450.54945055,79.86944,1.0,1.0,1.0,1.0,1.0,25.0,,0 days 00:00:00
2023-11-09 13:16:38.749,0.33964488,0.77980787,0.5065805,0.87924397,-0.19539838,0.43321267,0.10988076,0.5812609,0.42611682,0.83485854,0.33810836,0.45692608,0.92865574,0.12339183,0.13794397,0.9668024,0.79150826,-0.34816134,-0.2803881,0.7918914,764.35895,796.99634,754.68866,791.3553,798.20514,0.0,100.0,0.2918701171875,0.06964111328125,0.9627685546875,3.27484130859375,-5.301055908203125,-0.58319091796875,1718095.238095238,105460586.08058608,63009450.54945055,79.86944,1.0,1.0,1.0,1.0,1.0,25.0,,0 days 00:00:00.001000
2023-11-09 13:16:38.749,0.33964488,0.77980787,0.5065805,0.87924397,-0.19539838,0.43321267,0.10988076,0.5812609,0.42611682,0.83485854,0.33810836,0.45692608,0.92865574,0.12339183,0.13794397,0.9668024,0.79150826,-0.34816134,-0.2803881,0.7918914,777.6557,799.41394,755.09155,789.7436,819.5604,0.0,100.0,0.2918701171875,0.06964111328125,0.9627685546875,3.27484130859375,-5.301055908203125,-0.58319091796875,1718095.238095238,105460586.08058608,63009450.54945055,79.86944,1.0,1.0,1.0,1.0,1.0,25.0,,0 days 00:00:00
2023-11-09 13:16:38.749,0.33964488,0.77980787,0.5065805,0.87924397,-0.19539838,0.43321267,0.10988076,0.5812609,0.42611682,0.83485854,0.33810836,0.45692608,0.92865574,0.12339183,0.13794397,0.9668024,0.79150826,-0.34816134,-0.2803881,0.7918914,778.46155,804.65204,757.1062,778.86444,803.8461,0.0,100.0,0.2918701171875,0.06964111328125,0.9627685546875,3.27484130859375,-5.301055908203125,-0.58319091796875,1718095.238095238,105460586.08058608,63009450.54945055,79.86944,1.0,1.0,1.0,1.0,1.0,25.0,,0 days 00:00:00
2023-11-09 13:16:38.750,0.33964488,0.77980787,0.5065805,0.87924397,-0.19539838,0.43321267,0.10988076,0.5812609,0.42611682,0.83485854,0.33810836,0.45692608,0.92865574,0.12339183,0.13794397,0.9668024,0.79150826,-0.34816134,-0.2803881,0.7918914,779.67035,812.71063,760.32965,792.1612,941.6484,0.0,100.0,0.2918701171875,0.06964111328125,0.9627685546875,3.27484130859375,-5.301055908203125,-0.58319091796875,1718095.238095238,105460586.08058608,63009450.54945055,79.86944,1.0,1.0,1.0,1.0,1.0,25.0,,0 days 00:00:00.001000
2023-11-09 13:16:38.750,0.33964488,0.8101189,0.4902893,0.87924397,-0.19539838,0.42343843,0.10345922,0.5812609,0.42611682,0.83485854,0.33415997,0.45692608,0.92865574,0.11544075,0.108421385,0.9668024,0.79150826,-0.3702484,-0.28355664,0.7918914,770.80585,807.47253,763.95605,794.57874,851.79486,0.0,100.0,0.2918701171875,0.06964111328125,0.9627685546875,3.27484130859375,-5.301055908203125,-0.58319091796875,1718095.238095238,105460586.08058608,63009450.54945055,79.86944,1.0,1.0,1.0,1.0,1.0,25.0,,0 days 00:00:00
2023-11-09 13:16:38.752,0.33964488,0.8101189,0.4902893,0.87924397,-0.19539838,0.42343843,0.10345922,0.5812609,0.42611682,0.83485854,0.33415997,0.45692608,0.92865574,0.11544075,0.108421385,0.9668024,0.79150826,-0.3702484,-0.28355664,0.7918914,755.09155,797.3993,765.9707,792.96704,773.6264,0.0,100.0,0.2918701171875,0.06964111328125,0.9627685546875,3.27484130859375,-5.301055908203125,-0.58319091796875,1718095.238095238,105460586.08058608,63009450.54945055,79.86944,1.0,1.0,1.0,1.0,1.0,25.0,,0 days 00:00:00.002000
2023-11-09 13:16:38.752,0.33964488,0.8101189,0.4902893,0.87924397,-0.19539838,0.42343843,0.10345922,0.5812609,0.42611682,0.83485854,0.33415997,0.45692608,0.92865574,0.11544075,0.108421385,0.9668024,0.79150826,-0.3702484,-0.28355664,0.7918914,771.2088,798.20514,763.1502,791.75824,828.8278,0.0,100.0,0.2918701171875,0.06964111328125,0.9627685546875,3.27484130859375,-5.301055908203125,-0.58319091796875,1718095.238095238,105460586.08058608,63009450.54945055,79.86944,1.0,1.0,1.0,1.0,1.0,25.0,,0 days 00:00:00
2023-11-09 13:16:38.753,0.33964488,0.8101189,0.4902893,0.87924397,-0.19539838,0.42343843,0.10345922,0.5812609,0.42611682,0.83485854,0.33415997,0.45692608,0.92865574,0.11544075,0.108421385,0.9668024,0.79150826,-0.3702484,-0.28355664,0.7918914,788.93774,794.57874,762.3443,791.75824,943.2601,0.0,100.0,0.2918701171875,0.06964111328125,0.9627685546875,3.27484130859375,-5.301055908203125,-0.58319091796875,1718095.238095238,105460586.08058608,63009450.54945055,79.86944,1.0,1.0,1.0,1.0,1.0,25.0,,0 days 00:00:00.001000
2023-11-09 13:16:38.753,0.33964488,0.8101189,0.4902893,0.87924397,-0.19539838,0.42343843,0.10345922,0.5812609,0.42611682,0.83485854,0.33415997,0.45692608,0.92865574,0.11544075,0.108421385,0.9668024,0.79150826,-0.3702484,-0.28355664,0.7918914,764.7619,799.41394,765.56775,786.1172,828.4249,0.0,100.0,0.2918701171875,0.06964111328125,0.9627685546875,3.27484130859375,-5.301055908203125,-0.58319091796875,1718095.238095238,105460586.08058608,63009450.54945055,79.86944,1.0,1.0,1.0,1.0,1.0,25.0,,0 days 00:00:00
2023-11-09 13:16:38.781,0.33964488,0.8101189,0.4902893,0.87924397,-0.19539838,0.42343843,0.10345922,0.5812609,0.42611682,0.83485854,0.33415997,0.45692608,0.92865574,0.11544075,0.108421385,0.9668024,0.79150826,-0.3702484,-0.28355664,0.7918914,740.58606,805.05493,760.7326,769.19415,717.619,0.0,100.0,0.29278564453125,0.06317138671875,0.9716796875,2.355194091796875,-4.942169189453125,-1.27105712890625,1718095.238095238,105460586.08058608,63009450.54945055,79.86944,1.0,1.0,1.0,1.0,1.0,25.0,,0 days 00:00:00.028000
2023-11-09 13:16:38.782,0.33964488,0.8101189,0.4902893,0.87924397,-0.19539838,0.42343843,0.10345922,0.5812609,0.42611682,0.83485854,0.33415997,0.45692608,0.92865574,0.11544075,0.108421385,0.9668024,0.79150826,-0.3702484,-0.28355664,0.7918914,729.707,805.8608,752.674,759.5238,736.1539,0.0,100.0,0.29278564453125,0.06317138671875,0.9716796875,2.355194091796875,-4.942169189453125,-1.27105712890625,1718095.238095238,105460586.08058608,63009450.54945055,79.86944,1.0,1.0,1.0,1.0,1.0,25.0,,0 days 00:00:00.001000
2023-11-09 13:16:38.783,0.33964488,0.8101189,0.4902893,0.87924397,-0.19539838,0.42343843,0.10345922,0.5812609,0.42611682,0.83485854,0.33415997,0.45692608,0.92865574,0.11544075,0.108421385,0.9668024,0.79150826,-0.3702484,-0.28355664,0.7918914,703.91943,811.50183,754.68866,732.1245,817.9487,0.0,100.0,0.29278564453125,0.06317138671875,0.9716796875,2.355194091796875,-4.942169189453125,-1.27105712890625,1718095.238095238,105460586.08058608,63009450.54945055,79.86944,1.0,1.0,1.0,1.0,1.0,25.0,,0 days 00:00:00.001000
2023-11-09 13:16:38.783,0.33964488,0.8101189,0.4902893,0.87924397,-0.19539838,0.42343843,0.10345922,0.5812609,0.42611682,0.83485854,0.33415997,0.45692608,0.92865574,0.11544075,0.108421385,0.9668024,0.79150826,-0.3702484,-0.28355664,0.7918914,673.2967,809.89014,753.8828,692.23444,739.7802,0.0,100.0,0.29278564453125,0.06317138671875,0.9716796875,2.355194091796875,-4.942169189453125,-1.27105712890625,1718095.238095238,105460586.08058608,63009450.54945055,79.86944,1.0,1.0,1.0,1.0,1.0,25.0,,0 days 00:00:00
2023-11-09 13:16:38.784,0.33964488,0.8101189,0.4902893,0.87924397,-0.19539838,0.42343843,0.10345922,0.5812609,0.42611682,0.83485854,0.33415997,0.45692608,0.92865574,0.11544075,0.108421385,0.9668024,0.79150826,-0.3702484,-0.28355664,0.7918914,669.67035,806.26373,750.65936,692.6374,652.74725,0.0,100.0,0.29278564453125,0.06317138671875,0.9716796875,2.355194091796875,-4.942169189453125,-1.27105712890625,1718095.238095238,105460586.08058608,63009450.54945055,79.86944,1.0,1.0,1.0,1.0,1.0,25.0,,0 days 00:00:00.001000
2023-11-09 13:16:38.784,0.33964488,0.8101189,0.4902893,0.87924397,-0.19539838,0.42343843,0.10345922,0.5812609,0.42611682,0.83485854,0.33415997,0.45692608,0.92865574,0.11544075,0.108421385,0.9668024,0.79150826,-0.3702484,-0.28355664,0.7918914,669.2674,804.65204,755.4945,718.022,768.7912,0.0,100.0,0.29278564453125,0.06317138671875,0.9716796875,2.355194091796875,-4.942169189453125,-1.27105712890625,1718095.238095238,105460586.08058608,63009450.54945055,79.86944,1.0,1.0,1.0,1.0,1.0,25.0,,0 days 00:00:00
2023-11-09 13:16:38.784,0.33964488,0.8101189,0.4902893,0.87924397,-0.19539838,0.42343843,0.10345922,0.5812609,0.42611682,0.83485854,0.33415997,0.45692608,0.92865574,0.11544075,0.108421385,0.9668024,0.79150826,-0.3702484,-0.28355664,0.7918914,671.28204,803.0403,759.12085,701.9048,771.6117,0.0,100.0,0.29278564453125,0.06317138671875,0.9716796875,2.355194091796875,-4.942169189453125,-1.27105712890625,1718095.238095238,105460586.08058608,63009450.54945055,79.86944,1.0,1.0,1.0,1.0,1.0,25.0,,0 days 00:00:00
2023-11-09 13:16:38.785,0.33964488,0.8101189,0.4902893,0.87924397,-0.19539838,0.42343843,0.10345922,0.5812609,0.42611682,0.83485854,0.33415997,0.45692608,0.92865574,0.11544075,0.108421385,0.9668024,0.79150826,-0.3702484,-0.28355664,0.7918914,662.8205,803.0403,757.1062,687.3993,717.619,0.0,100.0,0.29278564453125,0.06317138671875,0.9716796875,2.355194091796875,-4.942169189453125,-1.27105712890625,1718095.238095238,105460586.08058608,63009450.54945055,79.86944,1.0,1.0,1.0,1.0,1.0,25.0,,0 days 00:00:00.001000
2023-11-09 13:16:38.785,0.33964488,0.8101189,0.4902893,0.87924397,-0.19539838,0.42343843,0.10345922,0.5812609,0.42611682,0.83485854,0.33415997,0.45692608,0.92865574,0.11544075,0.108421385,0.9668024,0.79150826,-0.3702484,-0.28355664,0.7918914,663.22345,802.6374,761.9414,699.89014,697.8755,0.0,100.0,0.29278564453125,0.06317138671875,0.9716796875,2.355194091796875,-4.942169189453125,-1.27105712890625,1718095.238095238,105460586.08058608,63009450.54945055,79.86944,1.0,1.0,1.0,1.0,1.0,25.0,,0 days 00:00:00
2023-11-09 13:16:38.786,0.33964488,0.8101189,0.4902893,0.87924397,-0.19539838,0.42343843,0.10345922,0.5812609,0.42611682,0.83485854,0.33415997,0.45692608,0.92865574,0.11544075,0.108421385,0.9668024,0.79150826,-0.3702484,-0.28355664,0.7918914,670.07324,797.3993,768.3883,720.0366,865.89746,0.0,100.0,0.29278564453125,0.06317138671875,0.9716796875,2.355194091796875,-4.942169189453125,-1.27105712890625,1718095.238095238,105460586.08058608,63009450.54945055,79.86944,1.0,1.0,1.0,1.0,1.0,25.0,,0 days 00:00:00.001000
2023-11-09 13:16:38.786,0.33964488,0.8101189,0.4902893,0.87924397,-0.19539838,0.42343843,0.10345922,0.5812609,0.42611682,0.83485854,0.33415997,0.45692608,0.92865574,0.11544075,0.108421385,0.9668024,0.79150826,-0.3702484,-0.28355664,0.7918914,672.49084,794.9817,767.5824,735.34796,819.15753,0.0,100.0,0.29278564453125,0.06317138671875,0.9716796875,2.355194091796875,-4.942169189453125,-1.27105712890625,1718095.238095238,105460586.08058608,63009450.54945055,79.86944,1.0,1.0,1.0,1.0,1.0,25.0,,0 days 00:00:00
2023-11-09 13:16:38.787,0.33964488,0.8101189,0.4902893,0.87924397,-0.19539838,0.42343843,0.10345922,0.5812609,0.42611682,0.83485854,0.33415997,0.45692608,0.92865574,0.11544075,0.108421385,0.9668024,0.79150826,-0.3702484,-0.28355664,0.7918914,688.20514,797.8022,767.98535,727.6923,705.5311,0.0,100.0,0.29278564453125,0.06317138671875,0.9716796875,2.355194091796875,-4.942169189453125,-1.27105712890625,1718095.238095238,105460586.08058608,63009450.54945055,79.86944,1.0,1.0,1.0,1.0,1.0,25.0,,0 days 00:00:00.001000
2023-11-09 13:16:38.851,0.33964488,0.8101189,0.4902893,0.87924397,-0.19539838,0.42343843,0.10345922,0.5812609,0.42611682,0.83485854,0.33415997,0.45692608,0.92865574,0.11544075,0.108421385,0.9668024,0.79150826,-0.3702484,-0.28355664,0.7918914,720.84247,800.6227,770.80585,703.91943,847.76556,0.0,100.0,0.29278564453125,0.06317138671875,0.9716796875,2.355194091796875,-4.942169189453125,-1.27105712890625,1721318.6813186812,105577435.89743587,63043296.7032967,79.86944,1.0,1.0,1.0,1.0,1.0,25.0,,0 days 00:00:00.064000
2023-11-09 13:16:38.852,0.33964488,0.8101189,0.4902893,0.87924397,-0.19539838,0.42343843,0.10345922,0.5812609,0.42611682,0.83485854,0.33415997,0.45692608,0.92865574,0.11544075,0.108421385,0.9668024,0.79150826,-0.3702484,-0.28355664,0.7918914,734.1392,796.99634,769.19415,717.619,809.89014,0.0,100.0,0.29278564453125,0.06317138671875,0.9716796875,2.355194091796875,-4.942169189453125,-1.27105712890625,1721318.6813186812,105577435.89743587,63043296.7032967,79.86944,1.0,1.0,1.0,1.0,1.0,25.0,,0 days 00:00:00.001000
2023-11-09 13:16:38.853,0.33964488,0.8101189,0.4902893,0.87924397,-0.19539838,0.42343843,0.10345922,0.5812609,0.42611682,0.83485854,0.33415997,0.45692608,0.92865574,0.11544075,0.108421385,0.9668024,0.79150826,-0.3702484,-0.28355664,0.7918914,738.97437,794.17584,764.35895,734.5421,707.9487,0.0,100.0,0.29278564453125,0.06317138671875,0.9716796875,2.355194091796875,-4.942169189453125,-1.27105712890625,1721318.6813186812,105577435.89743587,63043296.7032967,79.86944,1.0,1.0,1.0,1.0,1.0,25.0,,0 days 00:00:00.001000
2023-11-09 13:16:38.853,0.33964488,0.8101189,0.4902893,0.87924397,-0.19539838,0.42343843,0.10345922,0.5812609,0.42611682,0.83485854,0.33415997,0.45692608,0.92865574,0.11544075,0.108421385,0.9668024,0.79150826,-0.3702484,-0.28355664,0.7918914,742.1978,794.57874,764.7619,744.21246,695.4579,0.0,100.0,0.29278564453125,0.06317138671875,0.9716796875,2.355194091796875,-4.942169189453125,-1.27105712890625,1721318.6813186812,105577435.89743587,63043296.7032967,79.86944,1.0,1.0,1.0,1.0,1.0,25.0,,0 days 00:00:00
2023-11-09 13:16:38.854,0.33964488,0.8101189,0.4902893,0.87924397,-0.19539838,0.42343843,0.10345922,0.5812609,0.42611682,0.83485854,0.33415997,0.45692608,0.92865574,0.11544075,0.108421385,0.9668024,0.79150826,-0.3702484,-0.28355664,0.7918914,749.45056,791.75824,772.8205,776.4469,809.0842,0.0,100.0,0.29278564453125,0.06317138671875,0.9716796875,2.355194091796875,-4.942169189453125,-1.27105712890625,1721318.6813186812,105577435.89743587,63043296.7032967,79.86944,1.0,1.0,1.0,1.0,1.0,25.0,,0 days 00:00:00.001000
2023-11-09 13:16:38.854,0.33964488,0.8101189,0.4902893,0.87924397,-0.19539838,0.42343843,0.10345922,0.5812609,0.42611682,0.83485854,0.33415997,0.45692608,0.92865574,0.11544075,0.108421385,0.9668024,0.79150826,-0.3702484,-0.28355664,0.7918914,759.92676,792.1612,776.4469,801.02563,944.0659,0.0,100.0,0.29278564453125,0.06317138671875,0.9716796875,2.355194091796875,-4.942169189453125,-1.27105712890625,1721318.6813186812,105577435.89743587,63043296.7032967,79.86944,1.0,1.0,1.0,1.0,1.0,25.0,,0 days 00:00:00
2023-11-09 13:16:38.855,0.33964488,0.8101189,0.4902893,0.87924397,-0.19539838,0.42343843,0.10345922,0.5812609,0.42611682,0.83485854,0.33415997,0.45692608,0.92865574,0.11544075,0.108421385,0.9668024,0.79150826,-0.3702484,-0.28355664,0.7918914,764.35895,798.60803,773.22345,786.1172,877.5824,0.0,100.0,0.29278564453125,0.06317138671875,0.9716796875,2.355194091796875,-4.942169189453125,-1.27105712890625,1721318.6813186812,105577435.89743587,63043296.7032967,79.86944,1.0,1.0,1.0,1.0,1.0,25.0,,0 days 00:00:00.001000
2023-11-09 13:16:38.856,0.33964488,0.8101189,0.4902893,0.87924397,-0.19539838,0.42343843,0.10345922,0.5812609,0.42611682,0.83485854,0.33415997,0.45692608,0.92865574,0.11544075,0.108421385,0.9668024,0.79150826,-0.3702484,-0.28355664,0.7918914,769.59705,800.6227,770.0,768.3883,828.8278,0.0,100.0,0.29278564453125,0.06317138671875,0.9716796875,2.355194091796875,-4.942169189453125,-1.27105712890625,1721318.6813186812,105577435.89743587,63043296.7032967,79.86944,1.0,1.0,1.0,1.0,1.0,25.0,,0 days 00:00:00.001000
2023-11-09 13:16:38.856,0.33964488,0.8101189,0.4902893,0.87924397,-0.19539838,0.42343843,0.10345922,0.5812609,0.42611682,0.83485854,0.33415997,0.45692608,0.92865574,0.11544075,0.108421385,0.9668024,0.79150826,-0.3702484,-0.28355664,0.7918914,801.8315,796.99634,767.1795,777.25275,845.7509,0.0,100.0,0.29278564453125,0.06317138671875,0.9716796875,2.355194091796875,-4.942169189453125,-1.27105712890625,1721318.6813186812,105577435.89743587,63043296.7032967,79.86944,1.0,1.0,1.0,1.0,1.0,25.0,,0 days 00:00:00
2023-11-09 13:16:38.857,0.33964488,0.82066965,0.47953063,0.87924397,-0.19539838,0.4062011,0.08917371,0.5812609,0.42611682,0.8278991,0.32681155,0.45692608,0.92865574,0.10153796,0.064915985,0.9668024,0.79150826,-0.39492637,-0.29483852,0.7918914,811.0989,793.7729,761.53845,800.6227,1013.36993,0.0,100.0,0.29278564453125,0.06317138671875,0.9716796875,2.355194091796875,-4.942169189453125,-1.27105712890625,1721318.6813186812,105577435.89743587,63043296.7032967,79.86944,1.0,1.0,1.0,1.0,1.0,25.0,,0 days 00:00:00.001000
2023-11-09 13:16:38.858,0.33964488,0.82066965,0.47953063,0.87924397,-0.19539838,0.4062011,0.08917371,0.5812609,0.42611682,0.8278991,0.32681155,0.45692608,0.92865574,0.10153796,0.064915985,0.9668024,0.79150826,-0.39492637,-0.29483852,0.7918914,807.47253,799.41394,765.16486,807.8755,896.9231,0.0,100.0,0.29278564453125,0.06317138671875,0.9716796875,2.355194091796875,-4.942169189453125,-1.27105712890625,1721318.6813186812,105577435.89743587,63043296.7032967,79.86944,1.0,1.0,1.0,1.0,1.0,25.0,,0 days 00:00:00.001000
2023-11-09 13:16:38.859,0.33964488,0.82066965,0.47953063,0.87924397,-0.19539838,0.4062011,0.08917371,0.5812609,0.42611682,0.8278991,0.32681155,0.45692608,0.92865574,0.10153796,0.064915985,0.9668024,0.79150826,-0.39492637,-0.29483852,0.7918914,813.1135,800.6227,767.98535,821.978,707.1429,0.0,100.0,0.29278564453125,0.06317138671875,0.9716796875,2.355194091796875,-4.942169189453125,-1.27105712890625,1721318.6813186812,105577435.89743587,63043296.7032967,79.86944,1.0,1.0,1.0,1.0,1.0,25.0,,0 days 00:00:00.001000
2023-11-09 13:16:38.898,0.33964488,0.82066965,0.47953063,0.87924397,-0.19539838,0.4062011,0.08917371,0.5812609,0.42611682,0.8278991,0.32681155,0.45692608,0.92865574,0.10153796,0.064915985,0.9668024,0.79150826,-0.39492637,-0.29483852,0.7918914,828.022,801.8315,765.16486,834.87177,759.92676,0.0,100.0,0.2786865234375,0.057373046875,0.95257568359375,3.170166015625,-3.349609375,-0.665435791015625,1721318.6813186812,105577435.89743587,63043296.7032967,79.86944,1.0,1.0,1.0,1.0,1.0,25.0,,0 days 00:00:00.039000
2023-11-09 13:16:38.899,0.33964488,0.82066965,0.47953063,0.87924397,-0.19539838,0.4062011,0.08917371,0.5812609,0.42611682,0.8278991,0.32681155,0.45692608,0.92865574,0.10153796,0.064915985,0.9668024,0.79150826,-0.39492637,-0.29483852,0.7918914,838.49817,809.4872,766.3736,831.2454,762.3443,0.0,100.0,0.2786865234375,0.057373046875,0.95257568359375,3.170166015625,-3.349609375,-0.665435791015625,1721318.6813186812,105577435.89743587,63043296.7032967,79.86944,1.0,1.0,1.0,1.0,1.0,25.0,,0 days 00:00:00.001000
2023-11-09 13:16:38.899,0.33964488,0.82066965,0.47953063,0.87924397,-0.19539838,0.4062011,0.08917371,0.5812609,0.42611682,0.8278991,0.32681155,0.45692608,0.92865574,0.10153796,0.064915985,0.9668024,0.79150826,-0.39492637,-0.29483852,0.7918914,830.0366,809.4872,763.95605,816.7399,718.8278,0.0,100.0,0.2786865234375,0.057373046875,0.95257568359375,3.170166015625,-3.349609375,-0.665435791015625,1721318.6813186812,105577435.89743587,63043296.7032967,79.86944,1.0,1.0,1.0,1.0,1.0,25.0,,0 days 00:00:00
2023-11-09 13:16:38.900,0.33964488,0.82066965,0.47953063,0.87924397,-0.19539838,0.4062011,0.08917371,0.5812609,0.42611682,0.8278991,0.32681155,0.45692608,0.92865574,0.10153796,0.064915985,0.9668024,0.79150826,-0.39492637,-0.29483852,0.7918914,829.6337,806.6667,762.3443,820.7692,783.2967,0.0,100.0,0.2786865234375,0.057373046875,0.95257568359375,3.170166015625,-3.349609375,-0.665435791015625,1721318.6813186812,105577435.89743587,63043296.7032967,79.86944,1.0,1.0,1.0,1.0,1.0,25.0,,0 days 00:00:00.001000
2023-11-09 13:16:38.901,0.33964488,0.82066965,0.47953063,0.87924397,-0.19539838,0.4062011,0.08917371,0.5812609,0.42611682,0.8278991,0.32681155,0.45692608,0.92865574,0.10153796,0.064915985,0.9668024,0.79150826,-0.39492637,-0.29483852,0.7918914,820.3663,803.0403,763.95605,827.619,828.022,0.0,100.0,0.2786865234375,0.057373046875,0.95257568359375,3.170166015625,-3.349609375,-0.665435791015625,1721318.6813186812,105577435.89743587,63043296.7032967,79.86944,1.0,1.0,1.0,1.0,1.0,25.0,,0 days 00:00:00.001000
2023-11-09 13:16:38.901,0.33964488,0.82066965,0.47953063,0.87924397,-0.19539838,0.4062011,0.08917371,0.5812609,0.42611682,0.8278991,0.32681155,0.45692608,0.92865574,0.10153796,0.064915985,0.9668024,0.79150826,-0.39492637,-0.29483852,0.7918914,820.7692,799.81683,765.56775,820.7692,775.2381,0.0,100.0,0.2786865234375,0.057373046875,0.95257568359375,3.170166015625,-3.349609375,-0.665435791015625,1721318.6813186812,105577435.89743587,63043296.7032967,79.86944,1.0,1.0,1.0,1.0,1.0,25.0,,0 days 00:00:00
2023-11-09 13:16:38.902,0.33964488,0.82066965,0.47953063,0.87924397,-0.19539838,0.4062011,0.08917371,0.5812609,0.42611682,0.8278991,0.32681155,0.45692608,0.92865574,0.10153796,0.064915985,0.9668024,0.79150826,-0.39492637,-0.29483852,0.7918914,839.707,804.65204,764.7619,834.4689,803.44324,0.0,100.0,0.2786865234375,0.057373046875,0.95257568359375,3.170166015625,-3.349609375,-0.665435791015625,1721318.6813186812,105577435.89743587,63043296.7032967,79.86944,1.0,1.0,1.0,1.0,1.0,25.0,,0 days 00:00:00.001000
2023-11-09 13:16:38.902,0.33964488,0.82066965,0.47953063,0.87924397,-0.19539838,0.4062011,0.08917371,0.5812609,0.42611682,0.8278991,0.32681155,0.45692608,0.92865574,0.10153796,0.064915985,0.9668024,0.79150826,-0.39492637,-0.29483852,0.7918914,838.49817,804.65204,762.74725,839.304,849.7802,0.0,100.0,0.2786865234375,0.057373046875,0.95257568359375,3.170166015625,-3.349609375,-0.665435791015625,1721318.6813186812,105577435.89743587,63043296.7032967,79.86944,1.0,1.0,1.0,1.0,1.0,25.0,,0 days 00:00:00
2023-11-09 13:16:38.903,0.33964488,0.82066965,0.47953063,0.87924397,-0.19539838,0.4062011,0.08917371,0.5812609,0.42611682,0.8278991,0.32681155,0.45692608,0.92865574,0.10153796,0.064915985,0.9668024,0.79150826,-0.39492637,-0.29483852,0.7918914,838.0952,802.23444,760.7326,846.9597,928.7546,0.0,100.0,0.2786865234375,0.057373046875,0.95257568359375,3.170166015625,-3.349609375,-0.665435791015625,1721318.6813186812,105577435.89743587,63043296.7032967,79.86944,1.0,1.0,1.0,1.0,1.0,25.0,,0 days 00:00:00.001000
2023-11-09 13:16:38.903,0.33964488,0.82066965,0.47953063,0.87924397,-0.19539838,0.4062011,0.08917371,0.5812609,0.42611682,0.8278991,0.32681155,0.45692608,0.92865574,0.10153796,0.064915985,0.9668024,0.79150826,-0.39492637,-0.29483852,0.7918914,839.707,802.6374,766.3736,865.09155,1022.6374,0.0,100.0,0.2786865234375,0.057373046875,0.95257568359375,3.170166015625,-3.349609375,-0.665435791015625,1721318.6813186812,105577435.89743587,63043296.7032967,79.86944,1.0,1.0,1.0,1.0,1.0,25.0,,0 days 00:00:00
2023-11-09 13:16:38.904,0.33964488,0.82066965,0.47953063,0.87924397,-0.19539838,0.4062011,0.08917371,0.5812609,0.42611682,0.8278991,0.32681155,0.45692608,0.92865574,0.10153796,0.064915985,0.9668024,0.79150826,-0.39492637,-0.29483852,0.7918914,833.2601,802.6374,770.80585,834.4689,823.1868,0.0,100.0,0.2786865234375,0.057373046875,0.95257568359375,3.170166015625,-3.349609375,-0.665435791015625,1721318.6813186812,105577435.89743587,63043296.7032967,79.86944,1.0,1.0,1.0,1.0,1.0,25.0,,0 days 00:00:00.001000
2023-11-09 13:16:38.904,0.33964488,0.82066965,0.47953063,0.87924397,-0.19539838,0.4062011,0.08917371,0.5812609,0.42611682,0.8278991,0.32681155,0.45692608,0.92865574,0.10153796,0.064915985,0.9668024,0.79150826,-0.39492637,-0.29483852,0.7918914,843.73627,802.23444,769.59705,836.8865,711.5751,0.0,100.0,0.2786865234375,0.057373046875,0.95257568359375,3.170166015625,-3.349609375,-0.665435791015625,1721318.6813186812,105577435.89743587,63043296.7032967,79.86944,1.0,1.0,1.0,1.0,1.0,25.0,,0 days 00:00:00
2023-11-09 13:16:38.945,0.33964488,0.82066965,0.47953063,0.87924397,-0.19539838,0.4062011,0.08917371,0.5812609,0.42611682,0.8278991,0.32681155,0.45692608,0.92865574,0.10153796,0.064915985,0.9668024,0.79150826,-0.39492637,-0.29483852,0.7918914,844.1392,802.23444,765.9707,854.61536,790.9524,0.0,100.0,0.2860107421875,0.05889892578125,0.97747802734375,2.190704345703125,-3.790740966796875,0.49346923828125,1729377.2893772894,105335677.65567765,62908717.948717944,79.86944,1.0,1.0,1.0,1.0,1.0,25.0,,0 days 00:00:00.041000
2023-11-09 13:16:38.945,0.33964488,0.82066965,0.47953063,0.87924397,-0.19539838,0.4062011,0.08917371,0.5812609,0.42611682,0.8278991,0.32681155,0.45692608,0.92865574,0.10153796,0.064915985,0.9668024,0.79150826,-0.39492637,-0.29483852,0.7918914,845.7509,803.44324,764.7619,819.9634,712.381,0.0,100.0,0.2860107421875,0.05889892578125,0.97747802734375,2.190704345703125,-3.790740966796875,0.49346923828125,1729377.2893772894,105335677.65567765,62908717.948717944,79.86944,1.0,1.0,1.0,1.0,1.0,25.0,,0 days 00:00:00
2023-11-09 13:16:38.946,0.33964488,0.82066965,0.47953063,0.87924397,-0.19539838,0.4062011,0.08917371,0.5812609,0.42611682,0.8278991,0.32681155,0.45692608,0.92865574,0.10153796,0.064915985,0.9668024,0.79150826,-0.39492637,-0.29483852,0.7918914,860.2564,806.6667,764.35895,824.7985,669.2674,0.0,100.0,0.2860107421875,0.05889892578125,0.97747802734375,2.190704345703125,-3.790740966796875,0.49346923828125,1729377.2893772894,105335677.65567765,62908717.948717944,79.86944,1.0,1.0,1.0,1.0,1.0,25.0,,0 days 00:00:00.001000
2023-11-09 13:16:38.946,0.33964488,0.82066965,0.47953063,0.87924397,-0.19539838,0.4062011,0.08917371,0.5812609,0.42611682,0.8278991,0.32681155,0.45692608,0.92865574,0.10153796,0.064915985,0.9668024,0.79150826,-0.39492637,-0.29483852,0.7918914,841.31866,804.65204,766.3736,852.6007,695.4579,0.0,100.0,0.2860107421875,0.05889892578125,0.97747802734375,2.190704345703125,-3.790740966796875,0.49346923828125,1729377.2893772894,105335677.65567765,62908717.948717944,79.86944,1.0,1.0,1.0,1.0,1.0,25.0,,0 days 00:00:00
2023-11-09 13:16:38.947,0.33964488,0.82066965,0.47953063,0.87924397,-0.19539838,0.4062011,0.08917371,0.5812609,0.42611682,0.8278991,0.32681155,0.45692608,0.92865574,0.10153796,0.064915985,0.9668024,0.79150826,-0.39492637,-0.29483852,0.7918914,828.8278,801.4286,769.19415,859.0476,757.1062,0.0,100.0,0.2860107421875,0.05889892578125,0.97747802734375,2.190704345703125,-3.790740966796875,0.49346923828125,1729377.2893772894,105335677.65567765,62908717.948717944,79.86944,1.0,1.0,1.0,1.0,1.0,25.0,,0 days 00:00:00.001000
2023-11-09 13:16:38.947,0.33964488,0.82066965,0.47953063,0.87924397,-0.19539838,0.4062011,0.08917371,0.5812609,0.42611682,0.8278991,0.32681155,0.45692608,0.92865574,0.10153796,0.064915985,0.9668024,0.79150826,-0.39492637,-0.29483852,0.7918914,843.73627,801.4286,768.3883,861.06226,819.5604,0.0,100.0,0.2860107421875,0.05889892578125,0.97747802734375,2.190704345703125,-3.790740966796875,0.49346923828125,1729377.2893772894,105335677.65567765,62908717.948717944,79.86944,1.0,1.0,1.0,1.0,1.0,25.0,,0 days 00:00:00
2023-11-09 13:16:38.948,0.33964488,0.82066965,0.47953063,0.87924397,-0.19539838,0.4062011,0.08917371,0.5812609,0.42611682,0.8278991,0.32681155,0.45692608,0.92865574,0.10153796,0.064915985,0.9668024,0.79150826,-0.39492637,-0.29483852,0.7918914,839.304,803.44324,772.4176,850.18317,804.2491,0.0,100.0,0.2860107421875,0.05889892578125,0.97747802734375,2.190704345703125,-3.790740966796875,0.49346923828125,1729377.2893772894,105335677.65567765,62908717.948717944,79.86944,1.0,1.0,1.0,1.0,1.0,25.0,,0 days 00:00:00.001000
2023-11-09 13:16:38.949,0.33964488,0.82066965,0.47953063,0.87924397,-0.19539838,0.4062011,0.08917371,0.5812609,0.42611682,0.8278991,0.32681155,0.45692608,0.92865574,0.10153796,0.064915985,0.9668024,0.79150826,-0.39492637,-0.29483852,0.7918914,831.6484,799.41394,770.80585,854.61536,854.61536,0.0,100.0,0.2860107421875,0.05889892578125,0.97747802734375,2.190704345703125,-3.790740966796875,0.49346923828125,1729377.2893772894,105335677.65567765,62908717.948717944,79.86944,1.0,1.0,1.0,1.0,1.0,25.0,,0 days 00:00:00.001000
2023-11-09 13:16:38.949,0.33964488,0.82066965,0.47953063,0.87924397,-0.19539838,0.4062011,0.08917371,0.5812609,0.42611682,0.8278991,0.32681155,0.45692608,0.92865574,0.10153796,0.064915985,0.9668024,0.79150826,-0.39492637,-0.29483852,0.7918914,832.4542,792.5641,765.16486,879.59705,1123.37,0.0,100.0,0.2860107421875,0.05889892578125,0.97747802734375,2.190704345703125,-3.790740966796875,0.49346923828125,1729377.2893772894,105335677.65567765,62908717.948717944,79.86944,1.0,1.0,1.0,1.0,1.0,25.0,,0 days 00:00:00
2023-11-09 13:16:38.949,0.33964488,0.82066965,0.47953063,0.87924397,-0.19539838,0.4062011,0.08917371,0.5812609,0.42611682,0.8278991,0.32681155,0.45692608,0.92865574,0.10153796,0.064915985,0.9668024,0.79150826,-0.39492637,-0.29483852,0.7918914,832.0513,799.011,770.0,865.89746,1086.3004,0.0,100.0,0.2860107421875,0.05889892578125,0.97747802734375,2.190704345703125,-3.790740966796875,0.49346923828125,1729377.2893772894,105335677.65567765,62908717.948717944,79.86944,1.0,1.0,1.0,1.0,1.0,25.0,,0 days 00:00:00
2023-11-09 13:16:38.950,0.33964488,0.82066965,0.47953063,0.87924397,-0.19539838,0.4062011,0.08917371,0.5812609,0.42611682,0.8278991,0.32681155,0.45692608,0.92865574,0.10153796,0.064915985,0.9668024,0.79150826,-0.39492637,-0.29483852,0.7918914,839.707,800.6227,771.6117,844.5421,758.71796,0.0,100.0,0.2860107421875,0.05889892578125,0.97747802734375,2.190704345703125,-3.790740966796875,0.49346923828125,1729377.2893772894,105335677.65567765,62908717.948717944,79.86944,1.0,1.0,1.0,1.0,1.0,25.0,,0 days 00:00:00.001000
2023-11-09 13:16:38.952,0.33964488,0.82066965,0.47953063,0.87924397,-0.19539838,0.4062011,0.08917371,0.5812609,0.42611682,0.8278991,0.32681155,0.45692608,0.92865574,0.10153796,0.064915985,0.9668024,0.79150826,-0.39492637,-0.29483852,0.7918914,839.707,800.6227,771.6117,844.5421,758.71796,0.0,100.0,0.2860107421875,0.05889892578125,0.97747802734375,2.190704345703125,-3.790740966796875,0.49346923828125,1729377.2893772894,105335677.65567765,62908717.948717944,79.86944,1.0,1.0,1.0,1.0,1.0,25.0,/muse/elements/blink,0 days 00:00:00.002000
2023-11-09 13:16:38.950,0.33964488,0.8136098,0.4702595,0.87924397,-0.19539838,0.37383413,0.06363806,0.5812609,0.42611682,0.8044642,0.31542856,0.45692608,0.92865574,0.081743054,0.009026713,0.9668024,0.79150826,-0.4119441,-0.31778505,0.7918914,836.4835,794.57874,767.5824,847.76556,740.989,0.0,100.0,0.2860107421875,0.05889892578125,0.97747802734375,2.190704345703125,-3.790740966796875,0.49346923828125,1729377.2893772894,105335677.65567765,62908717.948717944,79.86944,1.0,2.0,1.0,1.0,2.0,25.0,/muse/elements/blink,-1 days +23:59:59.998000
2023-11-09 13:16:38.977,0.33964488,0.8136098,0.4702595,0.87924397,-0.19539838,0.37383413,0.06363806,0.5812609,0.42611682,0.8044642,0.31542856,0.45692608,0.92865574,0.081743054,0.009026713,0.9668024,0.79150826,-0.4119441,-0.31778505,0.7918914,826.0073,794.17584,771.6117,851.39197,759.5238,0.0,100.0,0.27435302734375,0.0537109375,0.956787109375,2.310333251953125,-3.96270751953125,0.2392578125,1729377.2893772894,105335677.65567765,62908717.948717944,79.86944,1.0,2.0,1.0,1.0,2.0,25.0,/muse/elements/blink,0 days 00:00:00.027000
2023-11-09 13:16:38.978,0.33964488,0.8136098,0.4702595,0.87924397,-0.19539838,0.37383413,0.06363806,0.5812609,0.42611682,0.8044642,0.31542856,0.45692608,0.92865574,0.081743054,0.009026713,0.9668024,0.79150826,-0.4119441,-0.31778505,0.7918914,851.79486,800.2198,773.22345,857.4359,719.6337,0.0,100.0,0.27435302734375,0.0537109375,0.956787109375,2.310333251953125,-3.96270751953125,0.2392578125,1729377.2893772894,105335677.65567765,62908717.948717944,79.86944,1.0,2.0,1.0,1.0,2.0,25.0,/muse/elements/blink,0 days 00:00:00.001000
2023-11-09 13:16:38.979,0.33964488,0.8136098,0.4702595,0.87924397,-0.19539838,0.37383413,0.06363806,0.5812609,0.42611682,0.8044642,0.31542856,0.45692608,0.92865574,0.081743054,0.009026713,0.9668024,0.79150826,-0.4119441,-0.31778505,0.7918914,851.79486,802.23444,770.0,856.2271,756.7033,0.0,100.0,0.27435302734375,0.0537109375,0.956787109375,2.310333251953125,-3.96270751953125,0.2392578125,1729377.2893772894,105335677.65567765,62908717.948717944,79.86944,1.0,2.0,1.0,1.0,2.0,25.0,/muse/elements/blink,0 days 00:00:00.001000
2023-11-09 13:16:38.979,0.33964488,0.8136098,0.4702595,0.87924397,-0.19539838,0.37383413,0.06363806,0.5812609,0.42611682,0.8044642,0.31542856,0.45692608,0.92865574,0.081743054,0.009026713,0.9668024,0.79150826,-0.4119441,-0.31778505,0.7918914,833.2601,799.41394,770.40295,859.85345,780.4762,0.0,100.0,0.27435302734375,0.0537109375,0.956787109375,2.310333251953125,-3.96270751953125,0.2392578125,1729377.2893772894,105335677.65567765,62908717.948717944,79.86944,1.0,2.0,1.0,1.0,2.0,25.0,/muse/elements/blink,0 days 00:00:00
2023-11-09 13:16:38.979,0.33964488,0.8136098,0.4702595,0.87924397,-0.19539838,0.37383413,0.06363806,0.5812609,0.42611682,0.8044642,0.31542856,0.45692608,0.92865574,0.081743054,0.009026713,0.9668024,0.79150826,-0.4119441,-0.31778505,0.7918914,834.4689,801.02563,770.80585,856.63007,733.3333,0.0,100.0,0.27435302734375,0.0537109375,0.956787109375,2.310333251953125,-3.96270751953125,0.2392578125,1729377.2893772894,105335677.65567765,62908717.948717944,79.86944,1.0,2.0,1.0,1.0,2.0,25.0,/muse/elements/blink,0 days 00:00:00
2023-11-09 13:16:38.980,0.33964488,0.8136098,0.4702595,0.87924397,-0.19539838,0.37383413,0.06363806,0.5812609,0.42611682,0.8044642,0.31542856,0.45692608,0.92865574,0.081743054,0.009026713,0.9668024,0.79150826,-0.4119441,-0.31778505,0.7918914,827.619,799.81683,769.19415,851.39197,728.0952,0.0,100.0,0.27435302734375,0.0537109375,0.956787109375,2.310333251953125,-3.96270751953125,0.2392578125,1729377.2893772894,105335677.65567765,62908717.948717944,79.86944,1.0,2.0,1.0,1.0,2.0,25.0,/muse/elements/blink,0 days 00:00:00.001000
2023-11-09 13:16:38.980,0.33964488,0.8136098,0.4702595,0.87924397,-0.19539838,0.37383413,0.06363806,0.5812609,0.42611682,0.8044642,0.31542856,0.45692608,0.92865574,0.081743054,0.009026713,0.9668024,0.79150826,-0.4119441,-0.31778505,0.7918914,830.0366,800.6227,772.8205,853.4066,711.1722,0.0,100.0,0.27435302734375,0.0537109375,0.956787109375,2.310333251953125,-3.96270751953125,0.2392578125,1729377.2893772894,105335677.65567765,62908717.948717944,79.86944,1.0,2.0,1.0,1.0,2.0,25.0,/muse/elements/blink,0 days 00:00:00
2023-11-09 13:16:38.981,0.33964488,0.8136098,0.4702595,0.87924397,-0.19539838,0.37383413,0.06363806,0.5812609,0.42611682,0.8044642,0.31542856,0.45692608,0.92865574,0.081743054,0.009026713,0.9668024,0.79150826,-0.4119441,-0.31778505,0.7918914,827.619,796.99634,771.2088,860.2564,835.6777,0.0,100.0,0.27435302734375,0.0537109375,0.956787109375,2.310333251953125,-3.96270751953125,0.2392578125,1729377.2893772894,105335677.65567765,62908717.948717944,79.86944,1.0,2.0,1.0,1.0,2.0,25.0,/muse/elements/blink,0 days 00:00:00.001000
2023-11-09 13:16:38.981,0.33964488,0.8136098,0.4702595,0.87924397,-0.19539838,0.37383413,0.06363806,0.5812609,0.42611682,0.8044642,0.31542856,0.45692608,0.92865574,0.081743054,0.009026713,0.9668024,0.79150826,-0.4119441,-0.31778505,0.7918914,830.84247,792.1612,765.16486,846.55676,894.5055,0.0,100.0,0.27435302734375,0.0537109375,0.956787109375,2.310333251953125,-3.96270751953125,0.2392578125,1729377.2893772894,105335677.65567765,62908717.948717944,79.86944,1.0,2.0,1.0,1.0,2.0,25.0,/muse/elements/blink,0 days 00:00:00
2023-11-09 13:16:38.981,0.33964488,0.8136098,0.4702595,0.87924397,-0.19539838,0.37383413,0.06363806,0.5812609,0.42611682,0.8044642,0.31542856,0.45692608,0.92865574,0.081743054,0.009026713,0.9668024,0.79150826,-0.4119441,-0.31778505,0.7918914,837.28937,794.57874,763.95605,828.4249,712.381,0.0,100.0,0.27435302734375,0.0537109375,0.956787109375,2.310333251953125,-3.96270751953125,0.2392578125,1729377.2893772894,105335677.65567765,62908717.948717944,79.86944,1.0,2.0,1.0,1.0,2.0,25.0,/muse/elements/blink,0 days 00:00:00
2023-11-09 13:16:38.982,0.33964488,0.8136098,0.4702595,0.87924397,-0.19539838,0.37383413,0.06363806,0.5812609,0.42611682,0.8044642,0.31542856,0.45692608,0.92865574,0.081743054,0.009026713,0.9668024,0.79150826,-0.4119441,-0.31778505,0.7918914,815.12823,796.99634,767.98535,833.663,677.72894,0.0,100.0,0.27435302734375,0.0537109375,0.956787109375,2.310333251953125,-3.96270751953125,0.2392578125,1729377.2893772894,105335677.65567765,62908717.948717944,79.86944,1.0,2.0,1.0,1.0,2.0,25.0,/muse/elements/blink,0 days 00:00:00.001000
2023-11-09 13:16:38.982,0.33964488,0.8136098,0.4702595,0.87924397,-0.19539838,0.37383413,0.06363806,0.5812609,0.42611682,0.8044642,0.31542856,0.45692608,0.92865574,0.081743054,0.009026713,0.9668024,0.79150826,-0.4119441,-0.31778505,0.7918914,823.1868,797.3993,769.59705,819.5604,728.49817,0.0,100.0,0.27435302734375,0.0537109375,0.956787109375,2.310333251953125,-3.96270751953125,0.2392578125,1729377.2893772894,105335677.65567765,62908717.948717944,79.86944,1.0,2.0,1.0,1.0,2.0,25.0,/muse/elements/blink,0 days 00:00:00
2023-11-09 13:16:39.010,0.33964488,0.8136098,0.4702595,0.87924397,-0.19539838,0.37383413,0.06363806,0.5812609,0.42611682,0.8044642,0.31542856,0.45692608,0.92865574,0.081743054,0.009026713,0.9668024,0.79150826,-0.4119441,-0.31778505,0.7918914,823.9927,798.20514,767.1795,830.4396,722.0513,0.0,100.0,0.26983642578125,0.06024169921875,0.96246337890625,3.013153076171875,-4.702911376953125,-0.04486083984375,1734212.454212454,105232527.47252747,62897435.897435896,79.86944,1.0,2.0,1.0,1.0,2.0,25.0,/muse/elements/blink,0 days 00:00:00.028000
2023-11-09 13:16:39.011,0.33964488,0.8136098,0.4702595,0.87924397,-0.19539838,0.37383413,0.06363806,0.5812609,0.42611682,0.8044642,0.31542856,0.45692608,0.92865574,0.081743054,0.009026713,0.9668024,0.79150826,-0.4119441,-0.31778505,0.7918914,804.65204,800.6227,767.1795,837.28937,707.1429,0.0,100.0,0.26983642578125,0.06024169921875,0.96246337890625,3.013153076171875,-4.702911376953125,-0.04486083984375,1734212.454212454,105232527.47252747,62897435.897435896,79.86944,1.0,2.0,1.0,1.0,2.0,25.0,/muse/elements/blink,0 days 00:00:00.001000
2023-11-09 13:16:39.011,0.33964488,0.8136098,0.4702595,0.87924397,-0.19539838,0.37383413,0.06363806,0.5812609,0.42611682,0.8044642,0.31542856,0.45692608,0.92865574,0.081743054,0.009026713,0.9668024,0.79150826,-0.4119441,-0.31778505,0.7918914,805.05493,795.38464,765.56775,823.9927,759.5238,0.0,100.0,0.26983642578125,0.06024169921875,0.96246337890625,3.013153076171875,-4.702911376953125,-0.04486083984375,1734212.454212454,105232527.47252747,62897435.897435896,79.86944,1.0,2.0,1.0,1.0,2.0,25.0,/muse/elements/blink,0 days 00:00:00
2023-11-09 13:16:39.012,0.33964488,0.8136098,0.4702595,0.87924397,-0.19539838,0.37383413,0.06363806,0.5812609,0.42611682,0.8044642,0.31542856,0.45692608,0.92865574,0.081743054,0.009026713,0.9668024,0.79150826,-0.4119441,-0.31778505,0.7918914,813.1135,794.9817,768.7912,839.707,881.2088,0.0,100.0,0.26983642578125,0.06024169921875,0.96246337890625,3.013153076171875,-4.702911376953125,-0.04486083984375,1734212.454212454,105232527.47252747,62897435.897435896,79.86944,1.0,2.0,1.0,1.0,2.0,25.0,/muse/elements/blink,0 days 00:00:00.001000
2023-11-09 13:16:39.012,0.33964488,0.8136098,0.4702595,0.87924397,-0.19539838,0.37383413,0.06363806,0.5812609,0.42611682,0.8044642,0.31542856,0.45692608,0.92865574,0.081743054,0.009026713,0.9668024,0.79150826,-0.4119441,-0.31778505,0.7918914,805.4579,799.41394,769.59705,848.97437,796.99634,0.0,100.0,0.26983642578125,0.06024169921875,0.96246337890625,3.013153076171875,-4.702911376953125,-0.04486083984375,1734212.454212454,105232527.47252747,62897435.897435896,79.86944,1.0,2.0,1.0,1.0,2.0,25.0,/muse/elements/blink,0 days 00:00:00
2023-11-09 13:16:39.012,0.33964488,0.8136098,0.4702595,0.87924397,-0.19539838,0.37383413,0.06363806,0.5812609,0.42611682,0.8044642,0.31542856,0.45692608,0.92865574,0.081743054,0.009026713,0.9668024,0.79150826,-0.4119441,-0.31778505,0.7918914,812.71063,795.38464,764.7619,845.7509,739.7802,0.0,100.0,0.26983642578125,0.06024169921875,0.96246337890625,3.013153076171875,-4.702911376953125,-0.04486083984375,1734212.454212454,105232527.47252747,62897435.897435896,79.86944,1.0,2.0,1.0,1.0,2.0,25.0,/muse/elements/blink,0 days 00:00:00
2023-11-09 13:16:39.013,0.33964488,0.8136098,0.4702595,0.87924397,-0.19539838,0.37383413,0.06363806,0.5812609,0.42611682,0.8044642,0.31542856,0.45692608,0.92865574,0.081743054,0.009026713,0.9668024,0.79150826,-0.4119441,-0.31778505,0.7918914,821.1722,794.17584,763.1502,839.707,864.68866,0.0,100.0,0.26983642578125,0.06024169921875,0.96246337890625,3.013153076171875,-4.702911376953125,-0.04486083984375,1734212.454212454,105232527.47252747,62897435.897435896,79.86944,1.0,2.0,1.0,1.0,2.0,25.0,/muse/elements/blink,0 days 00:00:00.001000
2023-11-09 13:16:39.013,0.33964488,0.8136098,0.4702595,0.87924397,-0.19539838,0.37383413,0.06363806,0.5812609,0.42611682,0.8044642,0.31542856,0.45692608,0.92865574,0.081743054,0.009026713,0.9668024,0.79150826,-0.4119441,-0.31778505,0.7918914,818.7546,794.57874,767.1795,843.73627,1032.7106,0.0,100.0,0.26983642578125,0.06024169921875,0.96246337890625,3.013153076171875,-4.702911376953125,-0.04486083984375,1734212.454212454,105232527.47252747,62897435.897435896,79.86944,1.0,2.0,1.0,1.0,2.0,25.0,/muse/elements/blink,0 days 00:00:00
2023-11-09 13:16:39.014,0.33964488,0.8136098,0.4702595,0.87924397,-0.19539838,0.37383413,0.06363806,0.5812609,0.42611682,0.8044642,0.31542856,0.45692608,0.92865574,0.081743054,0.009026713,0.9668024,0.79150826,-0.4119441,-0.31778505,0.7918914,821.5751,793.36993,771.6117,842.52747,875.16486,0.0,100.0,0.26983642578125,0.06024169921875,0.96246337890625,3.013153076171875,-4.702911376953125,-0.04486083984375,1734212.454212454,105232527.47252747,62897435.897435896,79.86944,1.0,2.0,1.0,1.0,2.0,25.0,/muse/elements/blink,0 days 00:00:00.001000
2023-11-09 13:16:39.014,0.33964488,0.8136098,0.4702595,0.87924397,-0.19539838,0.37383413,0.06363806,0.5812609,0.42611682,0.8044642,0.31542856,0.45692608,0.92865574,0.081743054,0.009026713,0.9668024,0.79150826,-0.4119441,-0.31778505,0.7918914,809.4872,792.96704,770.40295,837.6923,689.41394,0.0,100.0,0.26983642578125,0.06024169921875,0.96246337890625,3.013153076171875,-4.702911376953125,-0.04486083984375,1734212.454212454,105232527.47252747,62897435.897435896,79.86944,1.0,2.0,1.0,1.0,2.0,25.0,/muse/elements/blink,0 days 00:00:00
2023-11-09 13:16:39.014,0.33964488,0.8136098,0.4702595,0.87924397,-0.19539838,0.37383413,0.06363806,0.5812609,0.42611682,0.8044642,0.31542856,0.45692608,0.92865574,0.081743054,0.009026713,0.9668024,0.79150826,-0.4119441,-0.31778505,0.7918914,799.41394,791.3553,766.3736,824.3956,742.1978,0.0,100.0,0.26983642578125,0.06024169921875,0.96246337890625,3.013153076171875,-4.702911376953125,-0.04486083984375,1734212.454212454,105232527.47252747,62897435.897435896,79.86944,1.0,2.0,1.0,1.0,2.0,25.0,/muse/elements/blink,0 days 00:00:00
2023-11-09 13:16:39.015,0.33964488,0.8136098,0.4702595,0.87924397,-0.19539838,0.37383413,0.06363806,0.5812609,0.42611682,0.8044642,0.31542856,0.45692608,0.92865574,0.081743054,0.009026713,0.9668024,0.79150826,-0.4119441,-0.31778505,0.7918914,803.44324,788.5348,761.9414,821.1722,753.47986,0.0,100.0,0.26983642578125,0.06024169921875,0.96246337890625,3.013153076171875,-4.702911376953125,-0.04486083984375,1734212.454212454,105232527.47252747,62897435.897435896,79.86944,1.0,2.0,1.0,1.0,2.0,25.0,/muse/elements/blink,0 days 00:00:00.001000
2023-11-09 13:16:39.070,0.33964488,0.8136098,0.4702595,0.87924397,-0.19539838,0.37383413,0.06363806,0.5812609,0.42611682,0.8044642,0.31542856,0.45692608,0.92865574,0.081743054,0.009026713,0.9668024,0.79150826,-0.4119441,-0.31778505,0.7918914,805.4579,792.1612,764.7619,821.978,736.1539,0.0,100.0,0.26983642578125,0.06024169921875,0.96246337890625,3.013153076171875,-4.702911376953125,-0.04486083984375,1734212.454212454,105232527.47252747,62897435.897435896,79.86944,1.0,2.0,1.0,1.0,2.0,25.0,/muse/elements/blink,0 days 00:00:00.055000
2023-11-09 13:16:39.071,0.33964488,0.7950311,0.45164457,0.87924397,-0.19539838,0.3221292,0.027524453,0.5812609,0.42611682,0.7232259,0.30525592,0.45692608,0.92865574,0.06089772,-0.043961108,0.9668024,0.79150826,-0.41296664,-0.3503426,0.7918914,806.6667,794.57874,767.5824,830.84247,718.4249,0.0,100.0,0.26983642578125,0.06024169921875,0.96246337890625,3.013153076171875,-4.702911376953125,-0.04486083984375,1734212.454212454,105232527.47252747,62897435.897435896,79.86944,1.0,2.0,1.0,1.0,2.0,25.0,/muse/elements/blink,0 days 00:00:00.001000
2023-11-09 13:16:39.074,0.33964488,0.7950311,0.45164457,0.87924397,-0.19539838,0.3221292,0.027524453,0.5812609,0.42611682,0.7232259,0.30525592,0.45692608,0.92865574,0.06089772,-0.043961108,0.9668024,0.79150826,-0.41296664,-0.3503426,0.7918914,807.8755,792.5641,767.98535,850.58606,831.2454,0.0,100.0,0.26983642578125,0.06024169921875,0.96246337890625,3.013153076171875,-4.702911376953125,-0.04486083984375,1734212.454212454,105232527.47252747,62897435.897435896,79.86944,1.0,2.0,1.0,1.0,2.0,25.0,/muse/elements/blink,0 days 00:00:00.003000
2023-11-09 13:16:39.074,0.33964488,0.7950311,0.45164457,0.87924397,-0.19539838,0.3221292,0.027524453,0.5812609,0.42611682,0.7232259,0.30525592,0.45692608,0.92865574,0.06089772,-0.043961108,0.9668024,0.79150826,-0.41296664,-0.3503426,0.7918914,817.5458,796.99634,770.0,841.7216,869.92676,0.0,100.0,0.26983642578125,0.06024169921875,0.96246337890625,3.013153076171875,-4.702911376953125,-0.04486083984375,1734212.454212454,105232527.47252747,62897435.897435896,79.86944,1.0,2.0,1.0,1.0,2.0,25.0,/muse/elements/blink,0 days 00:00:00
2023-11-09 13:16:39.075,0.33964488,0.7950311,0.45164457,0.87924397,-0.19539838,0.3221292,0.027524453,0.5812609,0.42611682,0.7232259,0.30525592,0.45692608,0.92865574,0.06089772,-0.043961108,0.9668024,0.79150826,-0.41296664,-0.3503426,0.7918914,808.2784,795.38464,766.3736,815.12823,765.16486,0.0,100.0,0.26983642578125,0.06024169921875,0.96246337890625,3.013153076171875,-4.702911376953125,-0.04486083984375,1734212.454212454,105232527.47252747,62897435.897435896,79.86944,1.0,2.0,1.0,1.0,2.0,25.0,/muse/elements/blink,0 days 00:00:00.001000
2023-11-09 13:16:39.076,0.33964488,0.7950311,0.45164457,0.87924397,-0.19539838,0.3221292,0.027524453,0.5812609,0.42611682,0.7232259,0.30525592,0.45692608,0.92865574,0.06089772,-0.043961108,0.9668024,0.79150826,-0.41296664,-0.3503426,0.7918914,792.96704,791.75824,763.5531,816.337,778.46155,0.0,100.0,0.26983642578125,0.06024169921875,0.96246337890625,3.013153076171875,-4.702911376953125,-0.04486083984375,1734212.454212454,105232527.47252747,62897435.897435896,79.86944,1.0,2.0,1.0,1.0,2.0,25.0,/muse/elements/blink,0 days 00:00:00.001000
2023-11-09 13:16:39.076,0.33964488,0.7950311,0.45164457,0.87924397,-0.19539838,0.3221292,0.027524453,0.5812609,0.42611682,0.7232259,0.30525592,0.45692608,0.92865574,0.06089772,-0.043961108,0.9668024,0.79150826,-0.41296664,-0.3503426,0.7918914,797.8022,786.9231,763.5531,829.2308,1044.7986,0.0,100.0,0.26983642578125,0.06024169921875,0.96246337890625,3.013153076171875,-4.702911376953125,-0.04486083984375,1734212.454212454,105232527.47252747,62897435.897435896,79.86944,1.0,2.0,1.0,1.0,2.0,25.0,/muse/elements/blink,0 days 00:00:00
2023-11-09 13:16:39.077,0.33964488,0.7950311,0.45164457,0.87924397,-0.19539838,0.3221292,0.027524453,0.5812609,0.42611682,0.7232259,0.30525592,0.45692608,0.92865574,0.06089772,-0.043961108,0.9668024,0.79150826,-0.41296664,-0.3503426,0.7918914,823.5897,786.1172,763.95605,828.022,1099.1941,0.0,100.0,0.26983642578125,0.06024169921875,0.96246337890625,3.013153076171875,-4.702911376953125,-0.04486083984375,1734212.454212454,105232527.47252747,62897435.897435896,79.86944,1.0,2.0,1.0,1.0,2.0,25.0,/muse/elements/blink,0 days 00:00:00.001000
2023-11-09 13:16:39.077,0.33964488,0.7950311,0.45164457,0.87924397,-0.19539838,0.3221292,0.027524453,0.5812609,0.42611682,0.7232259,0.30525592,0.45692608,0.92865574,0.06089772,-0.043961108,0.9668024,0.79150826,-0.41296664,-0.3503426,0.7918914,823.5897,794.17584,768.3883,816.7399,789.7436,0.0,100.0,0.26983642578125,0.06024169921875,0.96246337890625,3.013153076171875,-4.702911376953125,-0.04486083984375,1734212.454212454,105232527.47252747,62897435.897435896,79.86944,1.0,2.0,1.0,1.0,2.0,25.0,/muse/elements/blink,0 days 00:00:00
2023-11-09 13:16:39.078,0.33964488,0.7950311,0.45164457,0.87924397,-0.19539838,0.3221292,0.027524453,0.5812609,0.42611682,0.7232259,0.30525592,0.45692608,0.92865574,0.06089772,-0.043961108,0.9668024,0.79150826,-0.41296664,-0.3503426,0.7918914,804.2491,794.17584,766.77655,815.9341,716.4103,0.0,100.0,0.26983642578125,0.06024169921875,0.96246337890625,3.013153076171875,-4.702911376953125,-0.04486083984375,1734212.454212454,105232527.47252747,62897435.897435896,79.86944,1.0,2.0,1.0,1.0,2.0,25.0,/muse/elements/blink,0 days 00:00:00.001000
2023-11-09 13:16:39.078,0.33964488,0.7950311,0.45164457,0.87924397,-0.19539838,0.3221292,0.027524453,0.5812609,0.42611682,0.7232259,0.30525592,0.45692608,0.92865574,0.06089772,-0.043961108,0.9668024,0.79150826,-0.41296664,-0.3503426,0.7918914,805.05493,790.14655,762.3443,802.23444,819.15753,0.0,100.0,0.26983642578125,0.06024169921875,0.96246337890625,3.013153076171875,-4.702911376953125,-0.04486083984375,1734212.454212454,105232527.47252747,62897435.897435896,79.86944,1.0,2.0,1.0,1.0,2.0,25.0,/muse/elements/blink,0 days 00:00:00
2023-11-09 13:16:39.079,0.33964488,0.7950311,0.45164457,0.87924397,-0.19539838,0.3221292,0.027524453,0.5812609,0.42611682,0.7232259,0.30525592,0.45692608,0.92865574,0.06089772,-0.043961108,0.9668024,0.79150826,-0.41296664,-0.3503426,0.7918914,810.696,794.57874,764.35895,799.41394,855.0183,0.0,100.0,0.26983642578125,0.06024169921875,0.96246337890625,3.013153076171875,-4.702911376953125,-0.04486083984375,1734212.454212454,105232527.47252747,62897435.897435896,79.86944,1.0,2.0,1.0,1.0,2.0,25.0,/muse/elements/blink,0 days 00:00:00.001000
2023-11-09 13:16:39.109,0.33964488,0.7950311,0.45164457,0.87924397,-0.19539838,0.3221292,0.027524453,0.5812609,0.42611682,0.7232259,0.30525592,0.45692608,0.92865574,0.06089772,-0.043961108,0.9668024,0.79150826,-0.41296664,-0.3503426,0.7918914,810.696,800.6227,768.3883,823.9927,767.98535,0.0,100.0,0.27642822265625,0.06640625,0.96673583984375,2.7215576171875,-5.1141357421875,-0.35888671875,1733406.5934065934,105250256.4102564,62892600.73260073,79.86944,1.0,2.0,1.0,1.0,2.0,25.0,/muse/elements/blink,0 days 00:00:00.030000
2023-11-09 13:16:39.110,0.33964488,0.7950311,0.45164457,0.87924397,-0.19539838,0.3221292,0.027524453,0.5812609,0.42611682,0.7232259,0.30525592,0.45692608,0.92865574,0.06089772,-0.043961108,0.9668024,0.79150826,-0.41296664,-0.3503426,0.7918914,823.5897,801.4286,766.77655,812.71063,738.97437,0.0,100.0,0.27642822265625,0.06640625,0.96673583984375,2.7215576171875,-5.1141357421875,-0.35888671875,1733406.5934065934,105250256.4102564,62892600.73260073,79.86944,1.0,2.0,1.0,1.0,2.0,25.0,/muse/elements/blink,0 days 00:00:00.001000
2023-11-09 13:16:39.110,0.33964488,0.7950311,0.45164457,0.87924397,-0.19539838,0.3221292,0.027524453,0.5812609,0.42611682,0.7232259,0.30525592,0.45692608,0.92865574,0.06089772,-0.043961108,0.9668024,0.79150826,-0.41296664,-0.3503426,0.7918914,825.6044,798.60803,768.7912,805.05493,790.54944,0.0,100.0,0.27642822265625,0.06640625,0.96673583984375,2.7215576171875,-5.1141357421875,-0.35888671875,1733406.5934065934,105250256.4102564,62892600.73260073,79.86944,1.0,2.0,1.0,1.0,2.0,25.0,/muse/elements/blink,0 days 00:00:00
2023-11-09 13:16:39.111,0.33964488,0.7950311,0.45164457,0.87924397,-0.19539838,0.3221292,0.027524453,0.5812609,0.42611682,0.7232259,0.30525592,0.45692608,0.92865574,0.06089772,-0.043961108,0.9668024,0.79150826,-0.41296664,-0.3503426,0.7918914,809.89014,796.1905,771.6117,808.68134,710.3663,0.0,100.0,0.27642822265625,0.06640625,0.96673583984375,2.7215576171875,-5.1141357421875,-0.35888671875,1733406.5934065934,105250256.4102564,62892600.73260073,79.86944,1.0,2.0,1.0,1.0,2.0,25.0,/muse/elements/blink,0 days 00:00:00.001000
2023-11-09 13:16:39.112,0.33964488,0.7950311,0.45164457,0.87924397,-0.19539838,0.3221292,0.027524453,0.5812609,0.42611682,0.7232259,0.30525592,0.45692608,0.92865574,0.06089772,-0.043961108,0.9668024,0.79150826,-0.41296664,-0.3503426,0.7918914,822.381,794.9817,766.3736,803.0403,677.326,0.0,100.0,0.27642822265625,0.06640625,0.96673583984375,2.7215576171875,-5.1141357421875,-0.35888671875,1733406.5934065934,105250256.4102564,62892600.73260073,79.86944,1.0,2.0,1.0,1.0,2.0,25.0,/muse/elements/blink,0 days 00:00:00.001000
2023-11-09 13:16:39.112,0.33964488,0.7950311,0.45164457,0.87924397,-0.19539838,0.3221292,0.027524453,0.5812609,0.42611682,0.7232259,0.30525592,0.45692608,0.92865574,0.06089772,-0.043961108,0.9668024,0.79150826,-0.41296664,-0.3503426,0.7918914,821.1722,793.7729,766.3736,821.5751,854.21246,0.0,100.0,0.27642822265625,0.06640625,0.96673583984375,2.7215576171875,-5.1141357421875,-0.35888671875,1733406.5934065934,105250256.4102564,62892600.73260073,79.86944,1.0,2.0,1.0,1.0,2.0,25.0,/muse/elements/blink,0 days 00:00:00
2023-11-09 13:16:39.113,0.33964488,0.7950311,0.45164457,0.87924397,-0.19539838,0.3221292,0.027524453,0.5812609,0.42611682,0.7232259,0.30525592,0.45692608,0.92865574,0.06089772,-0.043961108,0.9668024,0.79150826,-0.41296664,-0.3503426,0.7918914,813.91943,792.1612,769.19415,829.6337,990.0,0.0,100.0,0.27642822265625,0.06640625,0.96673583984375,2.7215576171875,-5.1141357421875,-0.35888671875,1733406.5934065934,105250256.4102564,62892600.73260073,79.86944,1.0,2.0,1.0,1.0,2.0,25.0,/muse/elements/blink,0 days 00:00:00.001000
2023-11-09 13:16:39.113,0.33964488,0.7950311,0.45164457,0.87924397,-0.19539838,0.3221292,0.027524453,0.5812609,0.42611682,0.7232259,0.30525592,0.45692608,0.92865574,0.06089772,-0.043961108,0.9668024,0.79150826,-0.41296664,-0.3503426,0.7918914,830.4396,792.1612,764.7619,816.7399,834.4689,0.0,100.0,0.27642822265625,0.06640625,0.96673583984375,2.7215576171875,-5.1141357421875,-0.35888671875,1733406.5934065934,105250256.4102564,62892600.73260073,79.86944,1.0,2.0,1.0,1.0,2.0,25.0,/muse/elements/blink,0 days 00:00:00
2023-11-09 13:16:39.113,0.33964488,0.7950311,0.45164457,0.87924397,-0.19539838,0.3221292,0.027524453,0.5812609,0.42611682,0.7232259,0.30525592,0.45692608,0.92865574,0.06089772,-0.043961108,0.9668024,0.79150826,-0.41296664,-0.3503426,0.7918914,826.0073,795.78754,762.3443,808.2784,758.71796,0.0,100.0,0.27642822265625,0.06640625,0.96673583984375,2.7215576171875,-5.1141357421875,-0.35888671875,1733406.5934065934,105250256.4102564,62892600.73260073,79.86944,1.0,2.0,1.0,1.0,2.0,25.0,/muse/elements/blink,0 days 00:00:00
2023-11-09 13:16:39.114,0.33964488,0.7950311,0.45164457,0.87924397,-0.19539838,0.3221292,0.027524453,0.5812609,0.42611682,0.7232259,0.30525592,0.45692608,0.92865574,0.06089772,-0.043961108,0.9668024,0.79150826,-0.41296664,-0.3503426,0.7918914,819.9634,797.3993,767.98535,834.87177,803.8461,0.0,100.0,0.27642822265625,0.06640625,0.96673583984375,2.7215576171875,-5.1141357421875,-0.35888671875,1733406.5934065934,105250256.4102564,62892600.73260073,79.86944,1.0,2.0,1.0,1.0,2.0,25.0,/muse/elements/blink,0 days 00:00:00.001000
2023-11-09 13:16:39.114,0.33964488,0.7950311,0.45164457,0.87924397,-0.19539838,0.3221292,0.027524453,0.5812609,0.42611682,0.7232259,0.30525592,0.45692608,0.92865574,0.06089772,-0.043961108,0.9668024,0.79150826,-0.41296664,-0.3503426,0.7918914,807.47253,798.20514,767.98535,839.707,1022.23444,0.0,100.0,0.27642822265625,0.06640625,0.96673583984375,2.7215576171875,-5.1141357421875,-0.35888671875,1733406.5934065934,105250256.4102564,62892600.73260073,79.86944,1.0,2.0,1.0,1.0,2.0,25.0,/muse/elements/blink,0 days 00:00:00
2023-11-09 13:16:39.115,0.33964488,0.7950311,0.45164457,0.87924397,-0.19539838,0.3221292,0.027524453,0.5812609,0.42611682,0.7232259,0.30525592,0.45692608,0.92865574,0.06089772,-0.043961108,0.9668024,0.79150826,-0.41296664,-0.3503426,0.7918914,803.8461,801.8315,770.0,818.7546,938.022,0.0,100.0,0.27642822265625,0.06640625,0.96673583984375,2.7215576171875,-5.1141357421875,-0.35888671875,1733406.5934065934,105250256.4102564,62892600.73260073,79.86944,1.0,2.0,1.0,1.0,2.0,25.0,/muse/elements/blink,0 days 00:00:00.001000
2023-11-09 13:16:39.192,0.33964488,0.7950311,0.45164457,0.87924397,-0.19539838,0.3221292,0.027524453,0.5812609,0.42611682,0.7232259,0.30525592,0.45692608,0.92865574,0.06089772,-0.043961108,0.9668024,0.79150826,-0.41296664,-0.3503426,0.7918914,809.89014,801.4286,770.40295,828.4249,788.93774,0.0,100.0,0.27783203125,0.05908203125,0.95758056640625,1.8243408203125,-5.540313720703125,0.665435791015625,1733406.5934065934,105250256.4102564,62892600.73260073,79.86944,1.0,2.0,1.0,1.0,2.0,25.0,/muse/elements/blink,0 days 00:00:00.077000
2023-11-09 13:16:39.193,0.33964488,0.7950311,0.45164457,0.87924397,-0.19539838,0.3221292,0.027524453,0.5812609,0.42611682,0.7232259,0.30525592,0.45692608,0.92865574,0.06089772,-0.043961108,0.9668024,0.79150826,-0.41296664,-0.3503426,0.7918914,797.3993,798.20514,768.3883,834.87177,847.3626,0.0,100.0,0.27783203125,0.05908203125,0.95758056640625,1.8243408203125,-5.540313720703125,0.665435791015625,1733406.5934065934,105250256.4102564,62892600.73260073,79.86944,1.0,2.0,1.0,1.0,2.0,25.0,/muse/elements/blink,0 days 00:00:00.001000
2023-11-09 13:16:39.193,0.33964488,0.7950311,0.45164457,0.87924397,-0.19539838,0.3221292,0.027524453,0.5812609,0.42611682,0.7232259,0.30525592,0.45692608,0.92865574,0.06089772,-0.043961108,0.9668024,0.79150826,-0.41296664,-0.3503426,0.7918914,799.011,796.99634,767.98535,828.4249,839.304,0.0,100.0,0.27783203125,0.05908203125,0.95758056640625,1.8243408203125,-5.540313720703125,0.665435791015625,1733406.5934065934,105250256.4102564,62892600.73260073,79.86944,1.0,2.0,1.0,1.0,2.0,25.0,/muse/elements/blink,0 days 00:00:00
2023-11-09 13:16:39.193,0.33964488,0.771164,0.42408356,0.87924397,-0.19539838,0.26186416,-0.007581181,0.5812609,0.42611682,0.552761,0.27485597,0.45692608,0.92865574,0.043005023,-0.07686268,0.9668024,0.79150826,-0.3999741,-0.38408875,0.7918914,814.7253,796.99634,769.19415,828.4249,791.3553,0.0,100.0,0.27783203125,0.05908203125,0.95758056640625,1.8243408203125,-5.540313720703125,0.665435791015625,1733406.5934065934,105250256.4102564,62892600.73260073,79.86944,1.0,2.0,1.0,1.0,2.0,25.0,/muse/elements/blink,0 days 00:00:00
2023-11-09 13:16:39.195,0.33964488,0.771164,0.42408356,0.87924397,-0.19539838,0.26186416,-0.007581181,0.5812609,0.42611682,0.552761,0.27485597,0.45692608,0.92865574,0.043005023,-0.07686268,0.9668024,0.79150826,-0.3999741,-0.38408875,0.7918914,812.3077,798.20514,769.19415,814.3223,821.5751,0.0,100.0,0.27783203125,0.05908203125,0.95758056640625,1.8243408203125,-5.540313720703125,0.665435791015625,1733406.5934065934,105250256.4102564,62892600.73260073,79.86944,1.0,2.0,1.0,1.0,2.0,25.0,/muse/elements/blink,0 days 00:00:00.002000
2023-11-09 13:16:39.195,0.33964488,0.771164,0.42408356,0.87924397,-0.19539838,0.26186416,-0.007581181,0.5812609,0.42611682,0.552761,0.27485597,0.45692608,0.92865574,0.043005023,-0.07686268,0.9668024,0.79150826,-0.3999741,-0.38408875,0.7918914,820.3663,801.02563,763.1502,809.0842,941.2454,0.0,100.0,0.27783203125,0.05908203125,0.95758056640625,1.8243408203125,-5.540313720703125,0.665435791015625,1733406.5934065934,105250256.4102564,62892600.73260073,79.86944,1.0,2.0,1.0,1.0,2.0,25.0,/muse/elements/blink,0 days 00:00:00
2023-11-09 13:16:39.195,0.33964488,0.771164,0.42408356,0.87924397,-0.19539838,0.26186416,-0.007581181,0.5812609,0.42611682,0.552761,0.27485597,0.45692608,0.92865574,0.043005023,-0.07686268,0.9668024,0.79150826,-0.3999741,-0.38408875,0.7918914,810.293,801.8315,760.32965,801.4286,875.16486,0.0,100.0,0.27783203125,0.05908203125,0.95758056640625,1.8243408203125,-5.540313720703125,0.665435791015625,1733406.5934065934,105250256.4102564,62892600.73260073,79.86944,1.0,2.0,1.0,1.0,2.0,25.0,/muse/elements/blink,0 days 00:00:00
2023-11-09 13:16:39.196,0.33964488,0.771164,0.42408356,0.87924397,-0.19539838,0.26186416,-0.007581181,0.5812609,0.42611682,0.552761,0.27485597,0.45692608,0.92865574,0.043005023,-0.07686268,0.9668024,0.79150826,-0.3999741,-0.38408875,0.7918914,789.7436,802.23444,765.9707,803.8461,751.8681,0.0,100.0,0.27783203125,0.05908203125,0.95758056640625,1.8243408203125,-5.540313720703125,0.665435791015625,1733406.5934065934,105250256.4102564,62892600.73260073,79.86944,1.0,2.0,1.0,1.0,2.0,25.0,/muse/elements/blink,0 days 00:00:00.001000
2023-11-09 13:16:39.196,0.33964488,0.771164,0.42408356,0.87924397,-0.19539838,0.26186416,-0.007581181,0.5812609,0.42611682,0.552761,0.27485597,0.45692608,0.92865574,0.043005023,-0.07686268,0.9668024,0.79150826,-0.3999741,-0.38408875,0.7918914,805.4579,804.2491,769.59705,820.7692,759.12085,0.0,100.0,0.27783203125,0.05908203125,0.95758056640625,1.8243408203125,-5.540313720703125,0.665435791015625,1733406.5934065934,105250256.4102564,62892600.73260073,79.86944,1.0,2.0,1.0,1.0,2.0,25.0,/muse/elements/blink,0 days 00:00:00
2023-11-09 13:16:39.196,0.33964488,0.771164,0.42408356,0.87924397,-0.19539838,0.26186416,-0.007581181,0.5812609,0.42611682,0.552761,0.27485597,0.45692608,0.92865574,0.043005023,-0.07686268,0.9668024,0.79150826,-0.3999741,-0.38408875,0.7918914,813.91943,799.41394,762.74725,826.0073,1021.8315,0.0,100.0,0.27783203125,0.05908203125,0.95758056640625,1.8243408203125,-5.540313720703125,0.665435791015625,1733406.5934065934,105250256.4102564,62892600.73260073,79.86944,1.0,2.0,1.0,1.0,2.0,25.0,/muse/elements/blink,0 days 00:00:00
2023-11-09 13:16:39.197,0.33964488,0.771164,0.42408356,0.87924397,-0.19539838,0.26186416,-0.007581181,0.5812609,0.42611682,0.552761,0.27485597,0.45692608,0.92865574,0.043005023,-0.07686268,0.9668024,0.79150826,-0.3999741,-0.38408875,0.7918914,799.41394,800.2198,763.95605,816.7399,1105.238,0.0,100.0,0.27783203125,0.05908203125,0.95758056640625,1.8243408203125,-5.540313720703125,0.665435791015625,1733406.5934065934,105250256.4102564,62892600.73260073,79.86944,1.0,2.0,1.0,1.0,2.0,25.0,/muse/elements/blink,0 days 00:00:00.001000
2023-11-09 13:16:39.197,0.33964488,0.771164,0.42408356,0.87924397,-0.19539838,0.26186416,-0.007581181,0.5812609,0.42611682,0.552761,0.27485597,0.45692608,0.92865574,0.043005023,-0.07686268,0.9668024,0.79150826,-0.3999741,-0.38408875,0.7918914,790.9524,802.6374,765.9707,791.3553,855.42126,0.0,100.0,0.27783203125,0.05908203125,0.95758056640625,1.8243408203125,-5.540313720703125,0.665435791015625,1733406.5934065934,105250256.4102564,62892600.73260073,79.86944,1.0,2.0,1.0,1.0,2.0,25.0,/muse/elements/blink,0 days 00:00:00
2023-11-09 13:16:39.224,0.33964488,0.771164,0.42408356,0.87924397,-0.19539838,0.26186416,-0.007581181,0.5812609,0.42611682,0.552761,0.27485597,0.45692608,0.92865574,0.043005023,-0.07686268,0.9668024,0.79150826,-0.3999741,-0.38408875,0.7918914,828.8278,802.23444,761.9414,810.293,777.6557,0.0,100.0,0.2733154296875,0.05413818359375,0.95751953125,2.1533203125,-6.138458251953125,0.545806884765625,1728571.4285714286,105259926.73992674,62897435.897435896,79.86944,1.0,2.0,1.0,1.0,2.0,25.0,/muse/elements/blink,0 days 00:00:00.027000
2023-11-09 13:16:39.225,0.33964488,0.771164,0.42408356,0.87924397,-0.19539838,0.26186416,-0.007581181,0.5812609,0.42611682,0.552761,0.27485597,0.45692608,0.92865574,0.043005023,-0.07686268,0.9668024,0.79150826,-0.3999741,-0.38408875,0.7918914,827.619,806.26373,761.13556,817.5458,800.2198,0.0,100.0,0.2733154296875,0.05413818359375,0.95751953125,2.1533203125,-6.138458251953125,0.545806884765625,1728571.4285714286,105259926.73992674,62897435.897435896,79.86944,1.0,2.0,1.0,1.0,2.0,25.0,/muse/elements/blink,0 days 00:00:00.001000
2023-11-09 13:16:39.225,0.33964488,0.771164,0.42408356,0.87924397,-0.19539838,0.26186416,-0.007581181,0.5812609,0.42611682,0.552761,0.27485597,0.45692608,0.92865574,0.043005023,-0.07686268,0.9668024,0.79150826,-0.3999741,-0.38408875,0.7918914,805.05493,807.8755,764.7619,799.011,801.02563,0.0,100.0,0.2733154296875,0.05413818359375,0.95751953125,2.1533203125,-6.138458251953125,0.545806884765625,1728571.4285714286,105259926.73992674,62897435.897435896,79.86944,1.0,2.0,1.0,1.0,2.0,25.0,/muse/elements/blink,0 days 00:00:00
2023-11-09 13:16:39.226,0.33964488,0.771164,0.42408356,0.87924397,-0.19539838,0.26186416,-0.007581181,0.5812609,0.42611682,0.552761,0.27485597,0.45692608,0.92865574,0.043005023,-0.07686268,0.9668024,0.79150826,-0.3999741,-0.38408875,0.7918914,795.78754,803.8461,767.5824,790.54944,799.41394,0.0,100.0,0.2733154296875,0.05413818359375,0.95751953125,2.1533203125,-6.138458251953125,0.545806884765625,1728571.4285714286,105259926.73992674,62897435.897435896,79.86944,1.0,2.0,1.0,1.0,2.0,25.0,/muse/elements/blink,0 days 00:00:00.001000
2023-11-09 13:16:39.226,0.33964488,0.771164,0.42408356,0.87924397,-0.19539838,0.26186416,-0.007581181,0.5812609,0.42611682,0.552761,0.27485597,0.45692608,0.92865574,0.043005023,-0.07686268,0.9668024,0.79150826,-0.3999741,-0.38408875,0.7918914,786.52014,801.4286,763.1502,780.07324,815.5311,0.0,100.0,0.2733154296875,0.05413818359375,0.95751953125,2.1533203125,-6.138458251953125,0.545806884765625,1728571.4285714286,105259926.73992674,62897435.897435896,79.86944,1.0,2.0,1.0,1.0,2.0,25.0,/muse/elements/blink,0 days 00:00:00
2023-11-09 13:16:39.226,0.33964488,0.771164,0.42408356,0.87924397,-0.19539838,0.26186416,-0.007581181,0.5812609,0.42611682,0.552761,0.27485597,0.45692608,0.92865574,0.043005023,-0.07686268,0.9668024,0.79150826,-0.3999741,-0.38408875,0.7918914,789.7436,797.8022,759.92676,775.2381,834.87177,0.0,100.0,0.2733154296875,0.05413818359375,0.95751953125,2.1533203125,-6.138458251953125,0.545806884765625,1728571.4285714286,105259926.73992674,62897435.897435896,79.86944,1.0,2.0,1.0,1.0,2.0,25.0,/muse/elements/blink,0 days 00:00:00
2023-11-09 13:16:39.227,0.33964488,0.771164,0.42408356,0.87924397,-0.19539838,0.26186416,-0.007581181,0.5812609,0.42611682,0.552761,0.27485597,0.45692608,0.92865574,0.043005023,-0.07686268,0.9668024,0.79150826,-0.3999741,-0.38408875,0.7918914,792.1612,796.1905,756.30035,789.7436,788.5348,0.0,100.0,0.2733154296875,0.05413818359375,0.95751953125,2.1533203125,-6.138458251953125,0.545806884765625,1728571.4285714286,105259926.73992674,62897435.897435896,79.86944,1.0,2.0,1.0,1.0,2.0,25.0,/muse/elements/blink,0 days 00:00:00.001000
2023-11-09 13:16:39.227,0.33964488,0.771164,0.42408356,0.87924397,-0.19539838,0.26186416,-0.007581181,0.5812609,0.42611682,0.552761,0.27485597,0.45692608,0.92865574,0.043005023,-0.07686268,0.9668024,0.79150826,-0.3999741,-0.38408875,0.7918914,778.46155,796.99634,753.47986,774.0293,758.71796,0.0,100.0,0.2733154296875,0.05413818359375,0.95751953125,2.1533203125,-6.138458251953125,0.545806884765625,1728571.4285714286,105259926.73992674,62897435.897435896,79.86944,1.0,2.0,1.0,1.0,2.0,25.0,/muse/elements/blink,0 days 00:00:00
2023-11-09 13:16:39.227,0.33964488,0.771164,0.42408356,0.87924397,-0.19539838,0.26186416,-0.007581181,0.5812609,0.42611682,0.552761,0.27485597,0.45692608,0.92865574,0.043005023,-0.07686268,0.9668024,0.79150826,-0.3999741,-0.38408875,0.7918914,782.49084,796.99634,757.1062,783.2967,760.32965,0.0,100.0,0.2733154296875,0.05413818359375,0.95751953125,2.1533203125,-6.138458251953125,0.545806884765625,1728571.4285714286,105259926.73992674,62897435.897435896,79.86944,1.0,2.0,1.0,1.0,2.0,25.0,/muse/elements/blink,0 days 00:00:00
2023-11-09 13:16:39.228,0.33964488,0.771164,0.42408356,0.87924397,-0.19539838,0.26186416,-0.007581181,0.5812609,0.42611682,0.552761,0.27485597,0.45692608,0.92865574,0.043005023,-0.07686268,0.9668024,0.79150826,-0.3999741,-0.38408875,0.7918914,798.60803,791.3553,754.68866,830.0366,946.4835,0.0,100.0,0.2733154296875,0.05413818359375,0.95751953125,2.1533203125,-6.138458251953125,0.545806884765625,1728571.4285714286,105259926.73992674,62897435.897435896,79.86944,1.0,2.0,1.0,1.0,2.0,25.0,/muse/elements/blink,0 days 00:00:00.001000
2023-11-09 13:16:39.228,0.33964488,0.771164,0.42408356,0.87924397,-0.19539838,0.26186416,-0.007581181,0.5812609,0.42611682,0.552761,0.27485597,0.45692608,0.92865574,0.043005023,-0.07686268,0.9668024,0.79150826,-0.3999741,-0.38408875,0.7918914,790.9524,793.36993,760.32965,813.1135,817.5458,0.0,100.0,0.2733154296875,0.05413818359375,0.95751953125,2.1533203125,-6.138458251953125,0.545806884765625,1728571.4285714286,105259926.73992674,62897435.897435896,79.86944,1.0,2.0,1.0,1.0,2.0,25.0,/muse/elements/blink,0 days 00:00:00
2023-11-09 13:16:39.229,0.33964488,0.771164,0.42408356,0.87924397,-0.19539838,0.26186416,-0.007581181,0.5812609,0.42611682,0.552761,0.27485597,0.45692608,0.92865574,0.043005023,-0.07686268,0.9668024,0.79150826,-0.3999741,-0.38408875,0.7918914,788.1319,793.7729,763.5531,790.14655,625.34796,0.0,100.0,0.2733154296875,0.05413818359375,0.95751953125,2.1533203125,-6.138458251953125,0.545806884765625,1728571.4285714286,105259926.73992674,62897435.897435896,79.86944,1.0,2.0,1.0,1.0,2.0,25.0,/muse/elements/blink,0 days 00:00:00.001000
2023-11-09 13:16:39.258,0.33964488,0.771164,0.42408356,0.87924397,-0.19539838,0.26186416,-0.007581181,0.5812609,0.42611682,0.552761,0.27485597,0.45692608,0.92865574,0.043005023,-0.07686268,0.9668024,0.79150826,-0.3999741,-0.38408875,0.7918914,789.7436,792.1612,758.315,801.8315,747.03296,0.0,100.0,0.277587890625,0.062744140625,0.96160888671875,2.43743896484375,-5.390777587890625,0.246734619140625,1728571.4285714286,105259926.73992674,62897435.897435896,79.86944,1.0,2.0,1.0,1.0,2.0,25.0,/muse/elements/blink,0 days 00:00:00.029000
2023-11-09 13:16:39.259,0.33964488,0.771164,0.42408356,0.87924397,-0.19539838,0.26186416,-0.007581181,0.5812609,0.42611682,0.552761,0.27485597,0.45692608,0.92865574,0.043005023,-0.07686268,0.9668024,0.79150826,-0.3999741,-0.38408875,0.7918914,799.011,796.1905,759.5238,805.4579,730.10986,0.0,100.0,0.277587890625,0.062744140625,0.96160888671875,2.43743896484375,-5.390777587890625,0.246734619140625,1728571.4285714286,105259926.73992674,62897435.897435896,79.86944,1.0,2.0,1.0,1.0,2.0,25.0,/muse/elements/blink,0 days 00:00:00.001000
2023-11-09 13:16:39.260,0.33964488,0.771164,0.42408356,0.87924397,-0.19539838,0.26186416,-0.007581181,0.5812609,0.42611682,0.552761,0.27485597,0.45692608,0.92865574,0.043005023,-0.07686268,0.9668024,0.79150826,-0.3999741,-0.38408875,0.7918914,782.8938,795.38464,760.32965,803.8461,657.5824,0.0,100.0,0.277587890625,0.062744140625,0.96160888671875,2.43743896484375,-5.390777587890625,0.246734619140625,1728571.4285714286,105259926.73992674,62897435.897435896,79.86944,1.0,2.0,1.0,1.0,2.0,25.0,/muse/elements/blink,0 days 00:00:00.001000
2023-11-09 13:16:39.260,0.33964488,0.771164,0.42408356,0.87924397,-0.19539838,0.26186416,-0.007581181,0.5812609,0.42611682,0.552761,0.27485597,0.45692608,0.92865574,0.043005023,-0.07686268,0.9668024,0.79150826,-0.3999741,-0.38408875,0.7918914,775.2381,794.17584,759.12085,813.91943,670.87915,0.0,100.0,0.277587890625,0.062744140625,0.96160888671875,2.43743896484375,-5.390777587890625,0.246734619140625,1728571.4285714286,105259926.73992674,62897435.897435896,79.86944,1.0,2.0,1.0,1.0,2.0,25.0,/muse/elements/blink,0 days 00:00:00
2023-11-09 13:16:39.261,0.33964488,0.771164,0.42408356,0.87924397,-0.19539838,0.26186416,-0.007581181,0.5812609,0.42611682,0.552761,0.27485597,0.45692608,0.92865574,0.043005023,-0.07686268,0.9668024,0.79150826,-0.3999741,-0.38408875,0.7918914,782.8938,790.9524,755.89746,797.8022,719.6337,0.0,100.0,0.277587890625,0.062744140625,0.96160888671875,2.43743896484375,-5.390777587890625,0.246734619140625,1728571.4285714286,105259926.73992674,62897435.897435896,79.86944,1.0,2.0,1.0,1.0,2.0,25.0,/muse/elements/blink,0 days 00:00:00.001000
2023-11-09 13:16:39.261,0.33964488,0.7455969,0.39431944,0.87924397,-0.19539838,0.20970848,-0.027304048,0.5812609,0.42611682,0.38581234,0.2600111,0.45692608,0.92865574,0.026166834,-0.0912631,0.9668024,0.79150826,-0.38588247,-0.4119413,0.7918914,798.20514,790.14655,756.30035,803.44324,759.5238,0.0,100.0,0.277587890625,0.062744140625,0.96160888671875,2.43743896484375,-5.390777587890625,0.246734619140625,1728571.4285714286,105259926.73992674,62897435.897435896,79.86944,1.0,2.0,1.0,1.0,2.0,25.0,/muse/elements/blink,0 days 00:00:00
2023-11-09 13:16:39.263,0.33964488,0.7455969,0.39431944,0.87924397,-0.19539838,0.20970848,-0.027304048,0.5812609,0.42611682,0.38581234,0.2600111,0.45692608,0.92865574,0.026166834,-0.0912631,0.9668024,0.79150826,-0.38588247,-0.4119413,0.7918914,808.68134,792.5641,757.9121,817.1429,730.9158,0.0,100.0,0.277587890625,0.062744140625,0.96160888671875,2.43743896484375,-5.390777587890625,0.246734619140625,1728571.4285714286,105259926.73992674,62897435.897435896,79.86944,1.0,2.0,1.0,1.0,2.0,25.0,/muse/elements/blink,0 days 00:00:00.002000
2023-11-09 13:16:39.263,0.33964488,0.7455969,0.39431944,0.87924397,-0.19539838,0.20970848,-0.027304048,0.5812609,0.42611682,0.38581234,0.2600111,0.45692608,0.92865574,0.026166834,-0.0912631,0.9668024,0.79150826,-0.38588247,-0.4119413,0.7918914,798.60803,793.36993,754.68866,805.8608,710.3663,0.0,100.0,0.277587890625,0.062744140625,0.96160888671875,2.43743896484375,-5.390777587890625,0.246734619140625,1728571.4285714286,105259926.73992674,62897435.897435896,79.86944,1.0,2.0,1.0,1.0,2.0,25.0,/muse/elements/blink,0 days 00:00:00
2023-11-09 13:16:39.264,0.33964488,0.7455969,0.39431944,0.87924397,-0.19539838,0.20970848,-0.027304048,0.5812609,0.42611682,0.38581234,0.2600111,0.45692608,0.92865574,0.026166834,-0.0912631,0.9668024,0.79150826,-0.38588247,-0.4119413,0.7918914,809.0842,794.17584,756.7033,811.50183,885.2381,0.0,100.0,0.277587890625,0.062744140625,0.96160888671875,2.43743896484375,-5.390777587890625,0.246734619140625,1728571.4285714286,105259926.73992674,62897435.897435896,79.86944,1.0,2.0,1.0,1.0,2.0,25.0,/muse/elements/blink,0 days 00:00:00.001000
2023-11-09 13:16:39.264,0.33964488,0.7455969,0.39431944,0.87924397,-0.19539838,0.20970848,-0.027304048,0.5812609,0.42611682,0.38581234,0.2600111,0.45692608,0.92865574,0.026166834,-0.0912631,0.9668024,0.79150826,-0.38588247,-0.4119413,0.7918914,798.20514,794.17584,762.3443,813.91943,908.60803,0.0,100.0,0.277587890625,0.062744140625,0.96160888671875,2.43743896484375,-5.390777587890625,0.246734619140625,1728571.4285714286,105259926.73992674,62897435.897435896,79.86944,1.0,2.0,1.0,1.0,2.0,25.0,/muse/elements/blink,0 days 00:00:00
2023-11-09 13:16:39.265,0.33964488,0.7455969,0.39431944,0.87924397,-0.19539838,0.20970848,-0.027304048,0.5812609,0.42611682,0.38581234,0.2600111,0.45692608,0.92865574,0.026166834,-0.0912631,0.9668024,0.79150826,-0.38588247,-0.4119413,0.7918914,790.14655,794.57874,764.35895,808.68134,796.1905,0.0,100.0,0.277587890625,0.062744140625,0.96160888671875,2.43743896484375,-5.390777587890625,0.246734619140625,1728571.4285714286,105259926.73992674,62897435.897435896,79.86944,1.0,2.0,1.0,1.0,2.0,25.0,/muse/elements/blink,0 days 00:00:00.001000
2023-11-09 13:16:39.265,0.33964488,0.7455969,0.39431944,0.87924397,-0.19539838,0.20970848,-0.027304048,0.5812609,0.42611682,0.38581234,0.2600111,0.45692608,0.92865574,0.026166834,-0.0912631,0.9668024,0.79150826,-0.38588247,-0.4119413,0.7918914,796.5934,794.9817,761.53845,796.1905,792.1612,0.0,100.0,0.277587890625,0.062744140625,0.96160888671875,2.43743896484375,-5.390777587890625,0.246734619140625,1728571.4285714286,105259926.73992674,62897435.897435896,79.86944,1.0,2.0,1.0,1.0,2.0,25.0,/muse/elements/blink,0 days 00:00:00
2023-11-09 13:16:39.300,0.33964488,0.7455969,0.39431944,0.87924397,-0.19539838,0.20970848,-0.027304048,0.5812609,0.42611682,0.38581234,0.2600111,0.45692608,0.92865574,0.026166834,-0.0912631,0.9668024,0.79150826,-0.38588247,-0.4119413,0.7918914,796.5934,793.36993,760.7326,814.3223,766.3736,0.0,100.0,0.277587890625,0.062744140625,0.96160888671875,2.43743896484375,-5.390777587890625,0.246734619140625,1719706.9597069595,105353406.5934066,62933699.63369963,79.86944,1.0,2.0,1.0,1.0,2.0,25.0,/muse/elements/blink,0 days 00:00:00.035000
2023-11-09 13:16:39.300,0.33964488,0.7455969,0.39431944,0.87924397,-0.19539838,0.20970848,-0.027304048,0.5812609,0.42611682,0.38581234,0.2600111,0.45692608,0.92865574,0.026166834,-0.0912631,0.9668024,0.79150826,-0.38588247,-0.4119413,0.7918914,813.91943,793.7729,759.12085,826.4103,753.0769,0.0,100.0,0.277587890625,0.062744140625,0.96160888671875,2.43743896484375,-5.390777587890625,0.246734619140625,1719706.9597069595,105353406.5934066,62933699.63369963,79.86944,1.0,2.0,1.0,1.0,2.0,25.0,/muse/elements/blink,0 days 00:00:00
2023-11-09 13:16:39.301,0.33964488,0.7455969,0.39431944,0.87924397,-0.19539838,0.20970848,-0.027304048,0.5812609,0.42611682,0.38581234,0.2600111,0.45692608,0.92865574,0.026166834,-0.0912631,0.9668024,0.79150826,-0.38588247,-0.4119413,0.7918914,822.381,794.57874,751.4652,806.6667,700.696,0.0,100.0,0.277587890625,0.062744140625,0.96160888671875,2.43743896484375,-5.390777587890625,0.246734619140625,1719706.9597069595,105353406.5934066,62933699.63369963,79.86944,1.0,2.0,1.0,1.0,2.0,25.0,/muse/elements/blink,0 days 00:00:00.001000
2023-11-09 13:16:39.301,0.33964488,0.7455969,0.39431944,0.87924397,-0.19539838,0.20970848,-0.027304048,0.5812609,0.42611682,0.38581234,0.2600111,0.45692608,0.92865574,0.026166834,-0.0912631,0.9668024,0.79150826,-0.38588247,-0.4119413,0.7918914,799.81683,797.8022,746.2271,790.14655,766.3736,0.0,100.0,0.277587890625,0.062744140625,0.96160888671875,2.43743896484375,-5.390777587890625,0.246734619140625,1719706.9597069595,105353406.5934066,62933699.63369963,79.86944,1.0,2.0,1.0,1.0,2.0,25.0,/muse/elements/blink,0 days 00:00:00
2023-11-09 13:16:39.301,0.33964488,0.7455969,0.39431944,0.87924397,-0.19539838,0.20970848,-0.027304048,0.5812609,0.42611682,0.38581234,0.2600111,0.45692608,0.92865574,0.026166834,-0.0912631,0.9668024,0.79150826,-0.38588247,-0.4119413,0.7918914,785.7143,797.8022,741.79486,782.0879,848.1685,0.0,100.0,0.277587890625,0.062744140625,0.96160888671875,2.43743896484375,-5.390777587890625,0.246734619140625,1719706.9597069595,105353406.5934066,62933699.63369963,79.86944,1.0,2.0,1.0,1.0,2.0,25.0,/muse/elements/blink,0 days 00:00:00
2023-11-09 13:16:39.302,0.33964488,0.7455969,0.39431944,0.87924397,-0.19539838,0.20970848,-0.027304048,0.5812609,0.42611682,0.38581234,0.2600111,0.45692608,0.92865574,0.026166834,-0.0912631,0.9668024,0.79150826,-0.38588247,-0.4119413,0.7918914,774.0293,796.5934,740.989,780.07324,728.49817,0.0,100.0,0.277587890625,0.062744140625,0.96160888671875,2.43743896484375,-5.390777587890625,0.246734619140625,1719706.9597069595,105353406.5934066,62933699.63369963,79.86944,1.0,2.0,1.0,1.0,2.0,25.0,/muse/elements/blink,0 days 00:00:00.001000
2023-11-09 13:16:39.302,0.33964488,0.7455969,0.39431944,0.87924397,-0.19539838,0.20970848,-0.027304048,0.5812609,0.42611682,0.38581234,0.2600111,0.45692608,0.92865574,0.026166834,-0.0912631,0.9668024,0.79150826,-0.38588247,-0.4119413,0.7918914,781.28204,801.4286,747.4359,790.14655,749.45056,0.0,100.0,0.277587890625,0.062744140625,0.96160888671875,2.43743896484375,-5.390777587890625,0.246734619140625,1719706.9597069595,105353406.5934066,62933699.63369963,79.86944,1.0,2.0,1.0,1.0,2.0,25.0,/muse/elements/blink,0 days 00:00:00
2023-11-09 13:16:39.302,0.33964488,0.7455969,0.39431944,0.87924397,-0.19539838,0.20970848,-0.027304048,0.5812609,0.42611682,0.38581234,0.2600111,0.45692608,0.92865574,0.026166834,-0.0912631,0.9668024,0.79150826,-0.38588247,-0.4119413,0.7918914,802.23444,805.05493,754.68866,793.7729,807.47253,0.0,100.0,0.277587890625,0.062744140625,0.96160888671875,2.43743896484375,-5.390777587890625,0.246734619140625,1719706.9597069595,105353406.5934066,62933699.63369963,79.86944,1.0,2.0,1.0,1.0,2.0,25.0,/muse/elements/blink,0 days 00:00:00
2023-11-09 13:16:39.302,0.33964488,0.7455969,0.39431944,0.87924397,-0.19539838,0.20970848,-0.027304048,0.5812609,0.42611682,0.38581234,0.2600111,0.45692608,0.92865574,0.026166834,-0.0912631,0.9668024,0.79150826,-0.38588247,-0.4119413,0.7918914,803.44324,804.2491,750.2564,805.4579,1021.8315,0.0,100.0,0.277587890625,0.062744140625,0.96160888671875,2.43743896484375,-5.390777587890625,0.246734619140625,1719706.9597069595,105353406.5934066,62933699.63369963,79.86944,1.0,2.0,1.0,1.0,2.0,25.0,/muse/elements/blink,0 days 00:00:00
2023-11-09 13:16:39.303,0.33964488,0.7455969,0.39431944,0.87924397,-0.19539838,0.20970848,-0.027304048,0.5812609,0.42611682,0.38581234,0.2600111,0.45692608,0.92865574,0.026166834,-0.0912631,0.9668024,0.79150826,-0.38588247,-0.4119413,0.7918914,788.5348,803.44324,753.8828,803.44324,992.01465,0.0,100.0,0.277587890625,0.062744140625,0.96160888671875,2.43743896484375,-5.390777587890625,0.246734619140625,1719706.9597069595,105353406.5934066,62933699.63369963,79.86944,1.0,2.0,1.0,1.0,2.0,25.0,/muse/elements/blink,0 days 00:00:00.001000
2023-11-09 13:16:39.303,0.33964488,0.7455969,0.39431944,0.87924397,-0.19539838,0.20970848,-0.027304048,0.5812609,0.42611682,0.38581234,0.2600111,0.45692608,0.92865574,0.026166834,-0.0912631,0.9668024,0.79150826,-0.38588247,-0.4119413,0.7918914,789.34064,804.2491,761.13556,792.1612,721.6484,0.0,100.0,0.277587890625,0.062744140625,0.96160888671875,2.43743896484375,-5.390777587890625,0.246734619140625,1719706.9597069595,105353406.5934066,62933699.63369963,79.86944,1.0,2.0,1.0,1.0,2.0,25.0,/muse/elements/blink,0 days 00:00:00
2023-11-09 13:16:39.303,0.33964488,0.7455969,0.39431944,0.87924397,-0.19539838,0.20970848,-0.027304048,0.5812609,0.42611682,0.38581234,0.2600111,0.45692608,0.92865574,0.026166834,-0.0912631,0.9668024,0.79150826,-0.38588247,-0.4119413,0.7918914,792.96704,803.44324,758.315,790.14655,786.9231,0.0,100.0,0.277587890625,0.062744140625,0.96160888671875,2.43743896484375,-5.390777587890625,0.246734619140625,1719706.9597069595,105353406.5934066,62933699.63369963,79.86944,1.0,2.0,1.0,1.0,2.0,25.0,/muse/elements/blink,0 days 00:00:00
2023-11-09 13:16:39.367,0.33964488,0.7455969,0.39431944,0.87924397,-0.19539838,0.20970848,-0.027304048,0.5812609,0.42611682,0.38581234,0.2600111,0.45692608,0.92865574,0.026166834,-0.0912631,0.9668024,0.79150826,-0.38588247,-0.4119413,0.7918914,793.36993,807.8755,759.92676,784.5055,879.19415,0.0,100.0,0.28009033203125,0.0599365234375,0.96307373046875,2.6318359375,-5.38330078125,-1.024322509765625,1719706.9597069595,105353406.5934066,62933699.63369963,79.86944,1.0,2.0,1.0,1.0,2.0,25.0,/muse/elements/blink,0 days 00:00:00.064000
