TimeStamp,Delta_TP9,Delta_AF7,Delta_AF8,Delta_TP10,Theta_TP9,Theta_AF7,Theta_AF8,Theta_TP10,Alpha_TP9,Alpha_AF7,Alpha_AF8,Alpha_TP10,Beta_TP9,Beta_AF7,Beta_AF8,Beta_TP10,Gamma_TP9,Gamma_AF7,Gamma_AF8,Gamma_TP10,RAW_TP9,RAW_AF7,RAW_AF8,RAW_TP10,AUX_RIGHT,Mellow,Concentration,Accelerometer_X,Accelerometer_Y,Accelerometer_Z,Gyro_X,Gyro_Y,Gyro_Z,PPG_Ambient,PPG_IR,PPG_Red,Heart_Rate,HeadBandOn,HSI_TP9,HSI_AF7,HSI_AF8,HSI_TP10,Battery,Elements,TimeDifference
2023-11-16 12:20:33.558,0.52060324,1.0568194,0.8287653,0.0,1.1496149,0.6119136,0.4436418,0.0,1.156312,0.4915802,0.49432185,0.0,0.91004086,0.29879785,0.010402622,0.0,0.42653096,0.015614309,-0.17708439,0.0,770.80585,789.7436,805.8608,782.0879,772.8205,0.0,0.0,-0.3763427734375,0.001708984375,0.9442138671875,3.8580322265625,-3.1103515625,-0.7177734375,3667472.527472527,128226959.70695972,96227838.82783882,75.63595,1.0,2.0,1.0,1.0,2.0,20.0,,0 days 00:00:00.060000
2023-11-16 12:20:33.559,0.52060324,1.0568194,0.8287653,0.0,1.1496149,0.6119136,0.4436418,0.0,1.156312,0.4915802,0.49432185,0.0,0.91004086,0.29879785,0.010402622,0.0,0.42653096,0.015614309,-0.17708439,0.0,764.35895,790.9524,805.4579,785.7143,721.2454,0.0,0.0,-0.3763427734375,0.001708984375,0.9442138671875,3.8580322265625,-3.1103515625,-0.7177734375,3667472.527472527,128226959.70695972,96227838.82783882,75.63595,1.0,2.0,1.0,1.0,2.0,20.0,,0 days 00:00:00.001000
2023-11-16 12:20:33.559,0.52060324,1.0568194,0.8287653,0.0,1.1496149,0.6119136,0.4436418,0.0,1.156312,0.4915802,0.49432185,0.0,0.91004086,0.29879785,0.010402622,0.0,0.42653096,0.015614309,-0.17708439,0.0,789.7436,796.5934,811.50183,994.0293,790.14655,0.0,0.0,-0.3763427734375,0.001708984375,0.9442138671875,3.8580322265625,-3.1103515625,-0.7177734375,3667472.527472527,128226959.70695972,96227838.82783882,75.63595,1.0,2.0,1.0,1.0,2.0,20.0,,0 days 00:00:00
2023-11-16 12:20:33.559,0.52060324,1.0568194,0.8287653,0.0,1.1496149,0.6119136,0.4436418,0.0,1.156312,0.4915802,0.49432185,0.0,0.91004086,0.29879785,0.010402622,0.0,0.42653096,0.015614309,-0.17708439,0.0,789.34064,799.41394,805.8608,1031.9048,895.7143,0.0,0.0,-0.3763427734375,0.001708984375,0.9442138671875,3.8580322265625,-3.1103515625,-0.7177734375,3667472.527472527,128226959.70695972,96227838.82783882,75.63595,1.0,2.0,1.0,1.0,2.0,20.0,,0 days 00:00:00
2023-11-16 12:20:33.560,0.52060324,1.0568194,0.8287653,0.0,1.1496149,0.6119136,0.4436418,0.0,1.156312,0.4915802,0.49432185,0.0,0.91004086,0.29879785,0.010402622,0.0,0.42653096,0.015614309,-0.17708439,0.0,781.28204,801.02563,813.5165,834.87177,848.97437,0.0,0.0,-0.3763427734375,0.001708984375,0.9442138671875,3.8580322265625,-3.1103515625,-0.7177734375,3667472.527472527,128226959.70695972,96227838.82783882,75.63595,1.0,2.0,1.0,1.0,2.0,20.0,,0 days 00:00:00.001000
2023-11-16 12:20:33.560,0.52060324,1.0568194,0.8287653,0.0,1.1496149,0.6119136,0.4436418,0.0,1.156312,0.4915802,0.49432185,0.0,0.91004086,0.29879785,0.010402622,0.0,0.42653096,0.015614309,-0.17708439,0.0,782.49084,796.1905,821.1722,791.3553,865.09155,0.0,0.0,-0.3763427734375,0.001708984375,0.9442138671875,3.8580322265625,-3.1103515625,-0.7177734375,3667472.527472527,128226959.70695972,96227838.82783882,75.63595,1.0,2.0,1.0,1.0,2.0,20.0,,0 days 00:00:00
2023-11-16 12:20:33.560,0.52060324,1.0568194,0.8287653,0.0,1.1496149,0.6119136,0.4436418,0.0,1.156312,0.4915802,0.49432185,0.0,0.91004086,0.29879785,0.010402622,0.0,0.42653096,0.015614309,-0.17708439,0.0,792.1612,792.5641,821.978,995.64105,954.94507,0.0,0.0,-0.3763427734375,0.001708984375,0.9442138671875,3.8580322265625,-3.1103515625,-0.7177734375,3667472.527472527,128226959.70695972,96227838.82783882,75.63595,1.0,2.0,1.0,1.0,2.0,20.0,,0 days 00:00:00
2023-11-16 12:20:33.560,0.52060324,1.0568194,0.8287653,0.0,1.1496149,0.6119136,0.4436418,0.0,1.156312,0.4915802,0.49432185,0.0,0.91004086,0.29879785,0.010402622,0.0,0.42653096,0.015614309,-0.17708439,0.0,802.23444,792.96704,813.5165,1085.4945,1055.2748,0.0,0.0,-0.3763427734375,0.001708984375,0.9442138671875,3.8580322265625,-3.1103515625,-0.7177734375,3667472.527472527,128226959.70695972,96227838.82783882,75.63595,1.0,2.0,1.0,1.0,2.0,20.0,,0 days 00:00:00
2023-11-16 12:20:33.561,0.52060324,1.0568194,0.8287653,0.0,1.1496149,0.6119136,0.4436418,0.0,1.156312,0.4915802,0.49432185,0.0,0.91004086,0.29879785,0.010402622,0.0,0.42653096,0.015614309,-0.17708439,0.0,797.3993,804.65204,806.26373,906.1905,954.1392,0.0,0.0,-0.3763427734375,0.001708984375,0.9442138671875,3.8580322265625,-3.1103515625,-0.7177734375,3667472.527472527,128226959.70695972,96227838.82783882,75.63595,1.0,2.0,1.0,1.0,2.0,20.0,,0 days 00:00:00.001000
2023-11-16 12:20:33.561,0.52060324,1.0568194,0.8287653,0.0,1.1496149,0.6119136,0.4436418,0.0,1.156312,0.4915802,0.49432185,0.0,0.91004086,0.29879785,0.010402622,0.0,0.42653096,0.015614309,-0.17708439,0.0,792.1612,811.9048,813.1135,755.09155,743.00366,0.0,0.0,-0.3763427734375,0.001708984375,0.9442138671875,3.8580322265625,-3.1103515625,-0.7177734375,3667472.527472527,128226959.70695972,96227838.82783882,75.63595,1.0,2.0,1.0,1.0,2.0,20.0,,0 days 00:00:00
2023-11-16 12:20:33.561,0.52060324,1.0568194,0.8287653,0.0,1.1496149,0.6119136,0.4436418,0.0,1.156312,0.4915802,0.49432185,0.0,0.91004086,0.29879785,0.010402622,0.0,0.42653096,0.015614309,-0.17708439,0.0,792.1612,803.44324,813.1135,891.685,813.1135,0.0,0.0,-0.3763427734375,0.001708984375,0.9442138671875,3.8580322265625,-3.1103515625,-0.7177734375,3667472.527472527,128226959.70695972,96227838.82783882,75.63595,1.0,2.0,1.0,1.0,2.0,20.0,,0 days 00:00:00
2023-11-16 12:20:33.561,0.52060324,1.0568194,0.8287653,0.0,1.1496149,0.6119136,0.4436418,0.0,1.156312,0.4915802,0.49432185,0.0,0.91004086,0.29879785,0.010402622,0.0,0.42653096,0.015614309,-0.17708439,0.0,799.81683,803.44324,815.5311,1067.3627,911.8315,0.0,0.0,-0.3763427734375,0.001708984375,0.9442138671875,3.8580322265625,-3.1103515625,-0.7177734375,3667472.527472527,128226959.70695972,96227838.82783882,75.63595,1.0,2.0,1.0,1.0,2.0,20.0,,0 days 00:00:00
2023-11-16 12:20:33.590,0.52060324,1.0568194,0.8287653,0.0,1.1496149,0.6119136,0.4436418,0.0,1.156312,0.4915802,0.49432185,0.0,0.91004086,0.29879785,0.010402622,0.0,0.42653096,0.015614309,-0.17708439,0.0,783.2967,807.47253,814.7253,932.381,750.2564,0.0,0.0,-0.3734130859375,0.00537109375,0.9315185546875,3.760833740234375,-4.80010986328125,0.97198486328125,3665054.945054945,128317216.11721613,96211721.6117216,76.56289,1.0,2.0,1.0,1.0,2.0,20.0,,0 days 00:00:00.029000
2023-11-16 12:20:33.591,0.52060324,1.0568194,0.8287653,0.0,1.1496149,0.6119136,0.4436418,0.0,1.156312,0.4915802,0.49432185,0.0,0.91004086,0.29879785,0.010402622,0.0,0.42653096,0.015614309,-0.17708439,0.0,764.7619,801.02563,811.9048,748.24176,705.9341,0.0,0.0,-0.3734130859375,0.00537109375,0.9315185546875,3.760833740234375,-4.80010986328125,0.97198486328125,3665054.945054945,128317216.11721613,96211721.6117216,76.56289,1.0,2.0,1.0,1.0,2.0,20.0,,0 days 00:00:00.001000
2023-11-16 12:20:33.591,0.52060324,1.0568194,0.8287653,0.0,1.1496149,0.6119136,0.4436418,0.0,1.156312,0.4915802,0.49432185,0.0,0.91004086,0.29879785,0.010402622,0.0,0.42653096,0.015614309,-0.17708439,0.0,785.31134,803.44324,817.5458,850.989,808.2784,0.0,0.0,-0.3734130859375,0.00537109375,0.9315185546875,3.760833740234375,-4.80010986328125,0.97198486328125,3665054.945054945,128317216.11721613,96211721.6117216,76.56289,1.0,2.0,1.0,1.0,2.0,20.0,,0 days 00:00:00
2023-11-16 12:20:33.592,0.52060324,1.0568194,0.8287653,0.0,1.1496149,0.6119136,0.4436418,0.0,1.156312,0.4915802,0.49432185,0.0,0.91004086,0.29879785,0.010402622,0.0,0.42653096,0.015614309,-0.17708439,0.0,807.0696,812.3077,815.5311,1050.4396,804.2491,0.0,0.0,-0.3734130859375,0.00537109375,0.9315185546875,3.760833740234375,-4.80010986328125,0.97198486328125,3665054.945054945,128317216.11721613,96211721.6117216,76.56289,1.0,2.0,1.0,1.0,2.0,20.0,,0 days 00:00:00.001000
2023-11-16 12:20:33.592,0.52060324,1.0568194,0.8287653,0.0,1.1496149,0.6119136,0.4436418,0.0,1.156312,0.4915802,0.49432185,0.0,0.91004086,0.29879785,0.010402622,0.0,0.42653096,0.015614309,-0.17708439,0.0,813.91943,814.3223,814.3223,1027.4725,747.4359,0.0,0.0,-0.3734130859375,0.00537109375,0.9315185546875,3.760833740234375,-4.80010986328125,0.97198486328125,3665054.945054945,128317216.11721613,96211721.6117216,76.56289,1.0,2.0,1.0,1.0,2.0,20.0,,0 days 00:00:00
2023-11-16 12:20:33.592,0.52060324,1.0568194,0.8287653,0.0,1.1496149,0.6119136,0.4436418,0.0,1.156312,0.4915802,0.49432185,0.0,0.91004086,0.29879785,0.010402622,0.0,0.42653096,0.015614309,-0.17708439,0.0,801.8315,806.26373,813.1135,846.9597,766.3736,0.0,0.0,-0.3734130859375,0.00537109375,0.9315185546875,3.760833740234375,-4.80010986328125,0.97198486328125,3665054.945054945,128317216.11721613,96211721.6117216,76.56289,1.0,2.0,1.0,1.0,2.0,20.0,,0 days 00:00:00
2023-11-16 12:20:33.593,0.52060324,1.0568194,0.8287653,0.0,1.1496149,0.6119136,0.4436418,0.0,1.156312,0.4915802,0.49432185,0.0,0.91004086,0.29879785,0.010402622,0.0,0.42653096,0.015614309,-0.17708439,0.0,789.7436,798.20514,813.91943,877.1795,1006.9231,0.0,0.0,-0.3734130859375,0.00537109375,0.9315185546875,3.760833740234375,-4.80010986328125,0.97198486328125,3665054.945054945,128317216.11721613,96211721.6117216,76.56289,1.0,2.0,1.0,1.0,2.0,20.0,,0 days 00:00:00.001000
2023-11-16 12:20:33.593,0.52060324,1.0568194,0.8287653,0.0,1.1496149,0.6119136,0.4436418,0.0,1.156312,0.4915802,0.49432185,0.0,0.91004086,0.29879785,0.010402622,0.0,0.42653096,0.015614309,-0.17708439,0.0,797.8022,796.99634,817.5458,1055.2748,1012.1612,0.0,0.0,-0.3734130859375,0.00537109375,0.9315185546875,3.760833740234375,-4.80010986328125,0.97198486328125,3665054.945054945,128317216.11721613,96211721.6117216,76.56289,1.0,2.0,1.0,1.0,2.0,20.0,,0 days 00:00:00
2023-11-16 12:20:33.594,0.52060324,1.0568194,0.8287653,0.0,1.1496149,0.6119136,0.4436418,0.0,1.156312,0.4915802,0.49432185,0.0,0.91004086,0.29879785,0.010402622,0.0,0.42653096,0.015614309,-0.17708439,0.0,782.49084,805.4579,814.7253,1053.663,729.707,0.0,0.0,-0.3734130859375,0.00537109375,0.9315185546875,3.760833740234375,-4.80010986328125,0.97198486328125,3665054.945054945,128317216.11721613,96211721.6117216,76.56289,1.0,2.0,1.0,1.0,2.0,20.0,,0 days 00:00:00.001000
2023-11-16 12:20:33.595,0.52060324,1.0568194,0.8287653,0.0,1.1496149,0.6119136,0.4436418,0.0,1.156312,0.4915802,0.49432185,0.0,0.91004086,0.29879785,0.010402622,0.0,0.42653096,0.015614309,-0.17708439,0.0,771.2088,807.0696,817.9487,869.92676,726.4835,0.0,0.0,-0.3734130859375,0.00537109375,0.9315185546875,3.760833740234375,-4.80010986328125,0.97198486328125,3665054.945054945,128317216.11721613,96211721.6117216,76.56289,1.0,2.0,1.0,1.0,2.0,20.0,,0 days 00:00:00.001000
2023-11-16 12:20:33.595,0.52060324,1.0568194,0.8287653,0.0,1.1496149,0.6119136,0.4436418,0.0,1.156312,0.4915802,0.49432185,0.0,0.91004086,0.29879785,0.010402622,0.0,0.42653096,0.015614309,-0.17708439,0.0,776.04395,799.81683,819.5604,799.41394,865.89746,0.0,0.0,-0.3734130859375,0.00537109375,0.9315185546875,3.760833740234375,-4.80010986328125,0.97198486328125,3665054.945054945,128317216.11721613,96211721.6117216,76.56289,1.0,2.0,1.0,1.0,2.0,20.0,,0 days 00:00:00
2023-11-16 12:20:33.595,0.52060324,1.0568194,0.8287653,0.0,1.1496149,0.6119136,0.4436418,0.0,1.156312,0.4915802,0.49432185,0.0,0.91004086,0.29879785,0.010402622,0.0,0.42653096,0.015614309,-0.17708439,0.0,787.326,803.44324,816.337,971.8681,839.707,0.0,0.0,-0.3734130859375,0.00537109375,0.9315185546875,3.760833740234375,-4.80010986328125,0.97198486328125,3665054.945054945,128317216.11721613,96211721.6117216,76.56289,1.0,2.0,1.0,1.0,2.0,20.0,,0 days 00:00:00
2023-11-16 12:20:33.658,0.52060324,1.0568194,0.8287653,0.0,1.1496149,0.6119136,0.4436418,0.0,1.156312,0.4915802,0.49432185,0.0,0.91004086,0.29879785,0.010402622,0.0,0.42653096,0.015614309,-0.17708439,0.0,803.8461,809.0842,819.5604,1085.0916,647.9121,0.0,0.0,-0.382568359375,0.00885009765625,0.9375,4.269256591796875,-4.14215087890625,1.502838134765625,3665054.945054945,128317216.11721613,96211721.6117216,76.56289,1.0,2.0,1.0,1.0,2.0,20.0,,0 days 00:00:00.063000
2023-11-16 12:20:33.658,0.52060324,1.0568194,0.8287653,0.0,1.1496149,0.6119136,0.4436418,0.0,1.156312,0.4915802,0.49432185,0.0,0.91004086,0.29879785,0.010402622,0.0,0.42653096,0.015614309,-0.17708439,0.0,790.9524,798.60803,817.1429,941.2454,686.99634,0.0,0.0,-0.382568359375,0.00885009765625,0.9375,4.269256591796875,-4.14215087890625,1.502838134765625,3665054.945054945,128317216.11721613,96211721.6117216,76.56289,1.0,2.0,1.0,1.0,2.0,20.0,,0 days 00:00:00
2023-11-16 12:20:33.659,0.52060324,1.0568194,0.8287653,0.0,1.1496149,0.6119136,0.4436418,0.0,1.156312,0.4915802,0.49432185,0.0,0.91004086,0.29879785,0.010402622,0.0,0.42653096,0.015614309,-0.17708439,0.0,783.69965,797.8022,815.12823,788.93774,767.5824,0.0,0.0,-0.382568359375,0.00885009765625,0.9375,4.269256591796875,-4.14215087890625,1.502838134765625,3665054.945054945,128317216.11721613,96211721.6117216,76.56289,1.0,2.0,1.0,1.0,2.0,20.0,,0 days 00:00:00.001000
2023-11-16 12:20:33.659,0.52060324,1.0568194,0.8287653,0.0,1.1496149,0.6119136,0.4436418,0.0,1.156312,0.4915802,0.49432185,0.0,0.91004086,0.29879785,0.010402622,0.0,0.42653096,0.015614309,-0.17708439,0.0,800.2198,804.65204,820.3663,896.52014,707.1429,0.0,0.0,-0.382568359375,0.00885009765625,0.9375,4.269256591796875,-4.14215087890625,1.502838134765625,3665054.945054945,128317216.11721613,96211721.6117216,76.56289,1.0,2.0,1.0,1.0,2.0,20.0,,0 days 00:00:00
2023-11-16 12:20:33.660,0.52060324,1.0568194,0.8287653,0.0,1.1496149,0.6119136,0.4436418,0.0,1.156312,0.4915802,0.49432185,0.0,0.91004086,0.29879785,0.010402622,0.0,0.42653096,0.015614309,-0.17708439,0.0,806.26373,805.8608,817.5458,1050.0366,686.5934,0.0,0.0,-0.382568359375,0.00885009765625,0.9375,4.269256591796875,-4.14215087890625,1.502838134765625,3665054.945054945,128317216.11721613,96211721.6117216,76.56289,1.0,2.0,1.0,1.0,2.0,20.0,,0 days 00:00:00.001000
2023-11-16 12:20:33.660,0.52060324,1.0568194,0.8287653,0.0,1.1496149,0.6119136,0.4436418,0.0,1.156312,0.4915802,0.49432185,0.0,0.91004086,0.29879785,0.010402622,0.0,0.42653096,0.015614309,-0.17708439,0.0,802.23444,800.2198,819.5604,967.03296,716.0073,0.0,0.0,-0.382568359375,0.00885009765625,0.9375,4.269256591796875,-4.14215087890625,1.502838134765625,3665054.945054945,128317216.11721613,96211721.6117216,76.56289,1.0,2.0,1.0,1.0,2.0,20.0,,0 days 00:00:00
2023-11-16 12:20:33.660,0.52060324,1.0568194,0.8287653,0.0,1.1496149,0.6119136,0.4436418,0.0,1.156312,0.4915802,0.49432185,0.0,0.91004086,0.29879785,0.010402622,0.0,0.42653096,0.015614309,-0.17708439,0.0,797.3993,790.54944,821.5751,805.05493,895.31134,0.0,0.0,-0.382568359375,0.00885009765625,0.9375,4.269256591796875,-4.14215087890625,1.502838134765625,3665054.945054945,128317216.11721613,96211721.6117216,76.56289,1.0,2.0,1.0,1.0,2.0,20.0,,0 days 00:00:00
2023-11-16 12:20:33.661,0.52060324,1.0568194,0.8287653,0.0,1.1496149,0.6119136,0.4436418,0.0,1.156312,0.4915802,0.49432185,0.0,0.91004086,0.29879785,0.010402622,0.0,0.42653096,0.015614309,-0.17708439,0.0,789.7436,802.6374,808.2784,824.3956,838.0952,0.0,0.0,-0.382568359375,0.00885009765625,0.9375,4.269256591796875,-4.14215087890625,1.502838134765625,3665054.945054945,128317216.11721613,96211721.6117216,76.56289,1.0,2.0,1.0,1.0,2.0,20.0,,0 days 00:00:00.001000
2023-11-16 12:20:33.661,0.52060324,1.0568194,0.8287653,0.0,1.1496149,0.6119136,0.4436418,0.0,1.156312,0.4915802,0.49432185,0.0,0.91004086,0.29879785,0.010402622,0.0,0.42653096,0.015614309,-0.17708439,0.0,796.99634,806.6667,807.8755,989.59705,669.2674,0.0,0.0,-0.382568359375,0.00885009765625,0.9375,4.269256591796875,-4.14215087890625,1.502838134765625,3665054.945054945,128317216.11721613,96211721.6117216,76.56289,1.0,2.0,1.0,1.0,2.0,20.0,,0 days 00:00:00
2023-11-16 12:20:33.662,0.52060324,1.0568194,0.8287653,0.0,1.1496149,0.6119136,0.4436418,0.0,1.156312,0.4915802,0.49432185,0.0,0.91004086,0.29879785,0.010402622,0.0,0.42653096,0.015614309,-0.17708439,0.0,799.41394,795.78754,815.9341,985.56775,794.57874,0.0,0.0,-0.382568359375,0.00885009765625,0.9375,4.269256591796875,-4.14215087890625,1.502838134765625,3665054.945054945,128317216.11721613,96211721.6117216,76.56289,1.0,2.0,1.0,1.0,2.0,20.0,,0 days 00:00:00.001000
2023-11-16 12:20:33.662,0.52060324,1.0568194,0.8287653,0.0,1.1496149,0.6119136,0.4436418,0.0,1.156312,0.4915802,0.49432185,0.0,0.91004086,0.29879785,0.010402622,0.0,0.42653096,0.015614309,-0.17708439,0.0,785.31134,797.8022,811.9048,803.8461,857.8388,0.0,0.0,-0.382568359375,0.00885009765625,0.9375,4.269256591796875,-4.14215087890625,1.502838134765625,3665054.945054945,128317216.11721613,96211721.6117216,76.56289,1.0,2.0,1.0,1.0,2.0,20.0,,0 days 00:00:00
2023-11-16 12:20:33.662,0.52060324,1.0568194,0.8287653,0.0,1.1496149,0.6119136,0.4436418,0.0,1.156312,0.4915802,0.49432185,0.0,0.91004086,0.29879785,0.010402622,0.0,0.42653096,0.015614309,-0.17708439,0.0,787.326,802.6374,807.0696,767.98535,723.2601,0.0,0.0,-0.382568359375,0.00885009765625,0.9375,4.269256591796875,-4.14215087890625,1.502838134765625,3665054.945054945,128317216.11721613,96211721.6117216,76.56289,1.0,2.0,1.0,1.0,2.0,20.0,,0 days 00:00:00
2023-11-16 12:20:33.687,0.52060324,1.0568194,0.8287653,0.0,1.1496149,0.6119136,0.4436418,0.0,1.156312,0.4915802,0.49432185,0.0,0.91004086,0.29879785,0.010402622,0.0,0.42653096,0.015614309,-0.17708439,0.0,802.23444,805.4579,809.0842,953.73627,670.4762,0.0,0.0,-0.38580322265625,0.01910400390625,0.93817138671875,3.289794921875,-4.508514404296875,0.082244873046875,3668278.388278388,128406666.66666666,96263296.7032967,77.49729,1.0,2.0,1.0,1.0,2.0,20.0,,0 days 00:00:00.025000
2023-11-16 12:20:33.688,0.52060324,1.0568194,0.8287653,0.0,1.1496149,0.6119136,0.4436418,0.0,1.156312,0.4915802,0.49432185,0.0,0.91004086,0.29879785,0.010402622,0.0,0.42653096,0.015614309,-0.17708439,0.0,797.8022,799.81683,808.68134,1039.5604,786.1172,0.0,0.0,-0.38580322265625,0.01910400390625,0.93817138671875,3.289794921875,-4.508514404296875,0.082244873046875,3668278.388278388,128406666.66666666,96263296.7032967,77.49729,1.0,2.0,1.0,1.0,2.0,20.0,,0 days 00:00:00.001000
2023-11-16 12:20:33.688,0.52060324,1.0568194,0.8287653,0.0,1.1496149,0.6119136,0.4436418,0.0,1.156312,0.4915802,0.49432185,0.0,0.91004086,0.29879785,0.010402622,0.0,0.42653096,0.015614309,-0.17708439,0.0,784.5055,795.38464,811.9048,864.2857,806.6667,0.0,0.0,-0.38580322265625,0.01910400390625,0.93817138671875,3.289794921875,-4.508514404296875,0.082244873046875,3668278.388278388,128406666.66666666,96263296.7032967,77.49729,1.0,2.0,1.0,1.0,2.0,20.0,,0 days 00:00:00
2023-11-16 12:20:33.688,0.52060324,1.0568194,0.8287653,0.0,1.1496149,0.6119136,0.4436418,0.0,1.156312,0.4915802,0.49432185,0.0,0.91004086,0.29879785,0.010402622,0.0,0.42653096,0.015614309,-0.17708439,0.0,778.0586,803.44324,814.3223,762.74725,725.2747,0.0,0.0,-0.38580322265625,0.01910400390625,0.93817138671875,3.289794921875,-4.508514404296875,0.082244873046875,3668278.388278388,128406666.66666666,96263296.7032967,77.49729,1.0,2.0,1.0,1.0,2.0,20.0,,0 days 00:00:00
2023-11-16 12:20:33.689,0.52060324,1.0568194,0.8287653,0.0,1.1496149,0.6119136,0.4436418,0.0,1.156312,0.4915802,0.49432185,0.0,0.91004086,0.29879785,0.010402622,0.0,0.42653096,0.015614309,-0.17708439,0.0,773.6264,805.4579,813.1135,902.5641,677.326,0.0,0.0,-0.38580322265625,0.01910400390625,0.93817138671875,3.289794921875,-4.508514404296875,0.082244873046875,3668278.388278388,128406666.66666666,96263296.7032967,77.49729,1.0,2.0,1.0,1.0,2.0,20.0,,0 days 00:00:00.001000
2023-11-16 12:20:33.689,0.52060324,1.0568194,0.8287653,0.0,1.1496149,0.6119136,0.4436418,0.0,1.156312,0.4915802,0.49432185,0.0,0.91004086,0.29879785,0.010402622,0.0,0.42653096,0.015614309,-0.17708439,0.0,792.1612,792.96704,811.9048,1083.0769,883.22345,0.0,0.0,-0.38580322265625,0.01910400390625,0.93817138671875,3.289794921875,-4.508514404296875,0.082244873046875,3668278.388278388,128406666.66666666,96263296.7032967,77.49729,1.0,2.0,1.0,1.0,2.0,20.0,,0 days 00:00:00
2023-11-16 12:20:33.689,0.52060324,1.0568194,0.8287653,0.0,1.1496149,0.6119136,0.4436418,0.0,1.156312,0.4915802,0.49432185,0.0,0.91004086,0.29879785,0.010402622,0.0,0.42653096,0.015614309,-0.17708439,0.0,790.14655,788.5348,803.8461,1024.249,1081.4652,0.0,0.0,-0.38580322265625,0.01910400390625,0.93817138671875,3.289794921875,-4.508514404296875,0.082244873046875,3668278.388278388,128406666.66666666,96263296.7032967,77.49729,1.0,2.0,1.0,1.0,2.0,20.0,,0 days 00:00:00
2023-11-16 12:20:33.689,0.52060324,1.0568194,0.8287653,0.0,1.1496149,0.6119136,0.4436418,0.0,1.156312,0.4915802,0.49432185,0.0,0.91004086,0.29879785,0.010402622,0.0,0.42653096,0.015614309,-0.17708439,0.0,773.6264,798.20514,798.60803,817.5458,839.304,0.0,0.0,-0.38580322265625,0.01910400390625,0.93817138671875,3.289794921875,-4.508514404296875,0.082244873046875,3668278.388278388,128406666.66666666,96263296.7032967,77.49729,1.0,2.0,1.0,1.0,2.0,20.0,,0 days 00:00:00
2023-11-16 12:20:33.690,0.52060324,1.0568194,0.8287653,0.0,1.1496149,0.6119136,0.4436418,0.0,1.156312,0.4915802,0.49432185,0.0,0.91004086,0.29879785,0.010402622,0.0,0.42653096,0.015614309,-0.17708439,0.0,775.64105,803.0403,797.3993,863.47986,702.3077,0.0,0.0,-0.38580322265625,0.01910400390625,0.93817138671875,3.289794921875,-4.508514404296875,0.082244873046875,3668278.388278388,128406666.66666666,96263296.7032967,77.49729,1.0,2.0,1.0,1.0,2.0,20.0,,0 days 00:00:00.001000
2023-11-16 12:20:33.690,0.52060324,1.0568194,0.8287653,0.0,1.1496149,0.6119136,0.4436418,0.0,1.156312,0.4915802,0.49432185,0.0,0.91004086,0.29879785,0.010402622,0.0,0.42653096,0.015614309,-0.17708439,0.0,786.9231,799.011,799.81683,1049.6337,865.4945,0.0,0.0,-0.38580322265625,0.01910400390625,0.93817138671875,3.289794921875,-4.508514404296875,0.082244873046875,3668278.388278388,128406666.66666666,96263296.7032967,77.49729,1.0,2.0,1.0,1.0,2.0,20.0,,0 days 00:00:00
2023-11-16 12:20:33.691,0.52060324,1.0568194,0.8287653,0.0,1.1496149,0.6119136,0.4436418,0.0,1.156312,0.4915802,0.49432185,0.0,0.91004086,0.29879785,0.010402622,0.0,0.42653096,0.015614309,-0.17708439,0.0,788.5348,800.2198,803.0403,1002.0879,940.84247,0.0,0.0,-0.38580322265625,0.01910400390625,0.93817138671875,3.289794921875,-4.508514404296875,0.082244873046875,3668278.388278388,128406666.66666666,96263296.7032967,77.49729,1.0,2.0,1.0,1.0,2.0,20.0,,0 days 00:00:00.001000
2023-11-16 12:20:33.691,0.52060324,1.0568194,0.8287653,0.0,1.1496149,0.6119136,0.4436418,0.0,1.156312,0.4915802,0.49432185,0.0,0.91004086,0.29879785,0.010402622,0.0,0.42653096,0.015614309,-0.17708439,0.0,763.1502,806.26373,798.20514,792.5641,720.84247,0.0,0.0,-0.38580322265625,0.01910400390625,0.93817138671875,3.289794921875,-4.508514404296875,0.082244873046875,3668278.388278388,128406666.66666666,96263296.7032967,77.49729,1.0,2.0,1.0,1.0,2.0,20.0,,0 days 00:00:00
2023-11-16 12:20:33.758,0.52060324,1.0568194,0.8287653,0.0,1.1496149,0.6119136,0.4436418,0.0,1.156312,0.4915802,0.49432185,0.0,0.91004086,0.29879785,0.010402622,0.0,0.42653096,0.015614309,-0.17708439,0.0,759.12085,801.4286,801.8315,814.3223,674.90845,0.0,0.0,-0.38580322265625,0.01910400390625,0.93817138671875,3.289794921875,-4.508514404296875,0.082244873046875,3668278.388278388,128406666.66666666,96263296.7032967,77.49729,1.0,2.0,1.0,1.0,2.0,20.0,,0 days 00:00:00.067000
2023-11-16 12:20:33.759,0.52060324,1.0568194,0.8287653,0.0,1.1496149,0.6119136,0.4436418,0.0,1.156312,0.4915802,0.49432185,0.0,0.91004086,0.29879785,0.010402622,0.0,0.42653096,0.015614309,-0.17708439,0.0,778.86444,799.41394,807.8755,1012.1612,733.3333,0.0,0.0,-0.38580322265625,0.01910400390625,0.93817138671875,3.289794921875,-4.508514404296875,0.082244873046875,3668278.388278388,128406666.66666666,96263296.7032967,77.49729,1.0,2.0,1.0,1.0,2.0,20.0,,0 days 00:00:00.001000
2023-11-16 12:20:33.759,0.52060324,1.0568194,0.8287653,0.0,1.1496149,0.6119136,0.4436418,0.0,1.156312,0.4915802,0.49432185,0.0,0.91004086,0.29879785,0.010402622,0.0,0.42653096,0.015614309,-0.17708439,0.0,786.52014,803.44324,808.2784,1023.0403,725.2747,0.0,0.0,-0.38580322265625,0.01910400390625,0.93817138671875,3.289794921875,-4.508514404296875,0.082244873046875,3668278.388278388,128406666.66666666,96263296.7032967,77.49729,1.0,2.0,1.0,1.0,2.0,20.0,,0 days 00:00:00
2023-11-16 12:20:33.760,0.52060324,1.0568194,0.8287653,0.0,1.1496149,0.6119136,0.4436418,0.0,1.156312,0.4915802,0.49432185,0.0,0.91004086,0.29879785,0.010402622,0.0,0.42653096,0.015614309,-0.17708439,0.0,783.69965,807.8755,814.3223,850.989,703.91943,0.0,0.0,-0.38580322265625,0.01910400390625,0.93817138671875,3.289794921875,-4.508514404296875,0.082244873046875,3668278.388278388,128406666.66666666,96263296.7032967,77.49729,1.0,2.0,1.0,1.0,2.0,20.0,,0 days 00:00:00.001000
2023-11-16 12:20:33.760,0.52060324,1.0568194,0.8287653,0.0,1.1496149,0.6119136,0.4436418,0.0,1.156312,0.4915802,0.49432185,0.0,0.91004086,0.29879785,0.010402622,0.0,0.42653096,0.015614309,-0.17708439,0.0,775.64105,803.0403,813.1135,822.7839,805.05493,0.0,0.0,-0.38580322265625,0.01910400390625,0.93817138671875,3.289794921875,-4.508514404296875,0.082244873046875,3668278.388278388,128406666.66666666,96263296.7032967,77.49729,1.0,2.0,1.0,1.0,2.0,20.0,,0 days 00:00:00
2023-11-16 12:20:33.761,0.52060324,1.0568194,0.8287653,0.0,1.1496149,0.6119136,0.4436418,0.0,1.156312,0.4915802,0.49432185,0.0,0.91004086,0.29879785,0.010402622,0.0,0.42653096,0.015614309,-0.17708439,0.0,784.90845,808.68134,805.8608,991.6117,888.86444,0.0,0.0,-0.38580322265625,0.01910400390625,0.93817138671875,3.289794921875,-4.508514404296875,0.082244873046875,3668278.388278388,128406666.66666666,96263296.7032967,77.49729,1.0,2.0,1.0,1.0,2.0,20.0,,0 days 00:00:00.001000
2023-11-16 12:20:33.761,0.52060324,1.0568194,0.8287653,0.0,1.1496149,0.6119136,0.4436418,0.0,1.156312,0.4915802,0.49432185,0.0,0.91004086,0.29879785,0.010402622,0.0,0.42653096,0.015614309,-0.17708439,0.0,788.93774,813.91943,814.7253,1064.9451,882.01465,0.0,0.0,-0.38580322265625,0.01910400390625,0.93817138671875,3.289794921875,-4.508514404296875,0.082244873046875,3668278.388278388,128406666.66666666,96263296.7032967,77.49729,1.0,2.0,1.0,1.0,2.0,20.0,,0 days 00:00:00
2023-11-16 12:20:33.762,0.52060324,1.0568194,0.8287653,0.0,1.1496149,0.6119136,0.4436418,0.0,1.156312,0.4915802,0.49432185,0.0,0.91004086,0.29879785,0.010402622,0.0,0.42653096,0.015614309,-0.17708439,0.0,781.28204,807.8755,815.5311,899.7436,879.59705,0.0,0.0,-0.38580322265625,0.01910400390625,0.93817138671875,3.289794921875,-4.508514404296875,0.082244873046875,3668278.388278388,128406666.66666666,96263296.7032967,77.49729,1.0,2.0,1.0,1.0,2.0,20.0,,0 days 00:00:00.001000
2023-11-16 12:20:33.762,0.52060324,1.0568194,0.8287653,0.0,1.1496149,0.6119136,0.4436418,0.0,1.156312,0.4915802,0.49432185,0.0,0.91004086,0.29879785,0.010402622,0.0,0.42653096,0.015614309,-0.17708439,0.0,777.6557,807.47253,810.293,765.16486,848.97437,0.0,0.0,-0.38580322265625,0.01910400390625,0.93817138671875,3.289794921875,-4.508514404296875,0.082244873046875,3668278.388278388,128406666.66666666,96263296.7032967,77.49729,1.0,2.0,1.0,1.0,2.0,20.0,,0 days 00:00:00
2023-11-16 12:20:33.763,0.52060324,1.0568194,0.8287653,0.0,1.1496149,0.6119136,0.4436418,0.0,1.156312,0.4915802,0.49432185,0.0,0.91004086,0.29879785,0.010402622,0.0,0.42653096,0.015614309,-0.17708439,0.0,789.34064,803.0403,805.05493,919.0842,1036.337,0.0,0.0,-0.38580322265625,0.01910400390625,0.93817138671875,3.289794921875,-4.508514404296875,0.082244873046875,3668278.388278388,128406666.66666666,96263296.7032967,77.49729,1.0,2.0,1.0,1.0,2.0,20.0,,0 days 00:00:00.001000
2023-11-16 12:20:33.763,0.52060324,1.0568194,0.8287653,0.0,1.1496149,0.6119136,0.4436418,0.0,1.156312,0.4915802,0.49432185,0.0,0.91004086,0.29879785,0.010402622,0.0,0.42653096,0.015614309,-0.17708439,0.0,801.8315,809.4872,790.14655,1053.2601,996.4469,0.0,0.0,-0.38580322265625,0.01910400390625,0.93817138671875,3.289794921875,-4.508514404296875,0.082244873046875,3668278.388278388,128406666.66666666,96263296.7032967,77.49729,1.0,2.0,1.0,1.0,2.0,20.0,,0 days 00:00:00
2023-11-16 12:20:33.764,0.52060324,1.0568194,0.8287653,0.0,1.1496149,0.6119136,0.4436418,0.0,1.156312,0.4915802,0.49432185,0.0,0.91004086,0.29879785,0.010402622,0.0,0.42653096,0.015614309,-0.17708439,0.0,786.52014,809.4872,805.4579,924.3223,771.6117,0.0,0.0,-0.38580322265625,0.01910400390625,0.93817138671875,3.289794921875,-4.508514404296875,0.082244873046875,3668278.388278388,128406666.66666666,96263296.7032967,77.49729,1.0,2.0,1.0,1.0,2.0,20.0,,0 days 00:00:00.001000
2023-11-16 12:20:33.798,0.52060324,1.0568194,0.8287653,0.0,1.1496149,0.6119136,0.4436418,0.0,1.156312,0.4915802,0.49432185,0.0,0.91004086,0.29879785,0.010402622,0.0,0.42653096,0.015614309,-0.17708439,0.0,773.6264,796.99634,828.4249,753.8828,765.9707,0.0,0.0,-0.3690185546875,0.01409912109375,0.94158935546875,2.16827392578125,-6.34033203125,0.635528564453125,3665860.805860806,128473553.1135531,96297142.85714284,78.377014,1.0,2.0,1.0,1.0,2.0,20.0,,0 days 00:00:00.034000
2023-11-16 12:20:33.798,0.52060324,1.0568194,0.8287653,0.0,1.1496149,0.6119136,0.4436418,0.0,1.156312,0.4915802,0.49432185,0.0,0.91004086,0.29879785,0.010402622,0.0,0.42653096,0.015614309,-0.17708439,0.0,774.83514,794.57874,833.2601,822.7839,776.8498,0.0,0.0,-0.3690185546875,0.01409912109375,0.94158935546875,2.16827392578125,-6.34033203125,0.635528564453125,3665860.805860806,128473553.1135531,96297142.85714284,78.377014,1.0,2.0,1.0,1.0,2.0,20.0,,0 days 00:00:00
2023-11-16 12:20:33.799,0.52060324,1.0568194,0.8287653,0.0,1.1496149,0.6119136,0.4436418,0.0,1.156312,0.4915802,0.49432185,0.0,0.91004086,0.29879785,0.010402622,0.0,0.42653096,0.015614309,-0.17708439,0.0,778.86444,787.326,845.34796,1045.2014,863.0769,0.0,0.0,-0.3690185546875,0.01409912109375,0.94158935546875,2.16827392578125,-6.34033203125,0.635528564453125,3665860.805860806,128473553.1135531,96297142.85714284,78.377014,1.0,2.0,1.0,1.0,2.0,20.0,,0 days 00:00:00.001000
2023-11-16 12:20:33.799,0.52060324,1.0568194,0.8287653,0.0,1.1496149,0.6119136,0.4436418,0.0,1.156312,0.4915802,0.49432185,0.0,0.91004086,0.29879785,0.010402622,0.0,0.42653096,0.015614309,-0.17708439,0.0,779.67035,778.0586,856.2271,1010.14655,840.10986,0.0,0.0,-0.3690185546875,0.01409912109375,0.94158935546875,2.16827392578125,-6.34033203125,0.635528564453125,3665860.805860806,128473553.1135531,96297142.85714284,78.377014,1.0,2.0,1.0,1.0,2.0,20.0,,0 days 00:00:00
2023-11-16 12:20:33.799,0.52060324,1.0568194,0.8287653,0.0,1.1496149,0.6119136,0.4436418,0.0,1.156312,0.4915802,0.49432185,0.0,0.91004086,0.29879785,0.010402622,0.0,0.42653096,0.015614309,-0.17708439,0.0,777.25275,770.40295,851.39197,814.7253,755.89746,0.0,0.0,-0.3690185546875,0.01409912109375,0.94158935546875,2.16827392578125,-6.34033203125,0.635528564453125,3665860.805860806,128473553.1135531,96297142.85714284,78.377014,1.0,2.0,1.0,1.0,2.0,20.0,,0 days 00:00:00
2023-11-16 12:20:33.800,0.52060324,1.0568194,0.8287653,0.0,1.1496149,0.6119136,0.4436418,0.0,1.156312,0.4915802,0.49432185,0.0,0.91004086,0.29879785,0.010402622,0.0,0.42653096,0.015614309,-0.17708439,0.0,795.78754,771.2088,845.7509,847.76556,801.4286,0.0,0.0,-0.3690185546875,0.01409912109375,0.94158935546875,2.16827392578125,-6.34033203125,0.635528564453125,3665860.805860806,128473553.1135531,96297142.85714284,78.377014,1.0,2.0,1.0,1.0,2.0,20.0,,0 days 00:00:00.001000
2023-11-16 12:20:33.800,0.52060324,1.0568194,0.8287653,0.0,1.1496149,0.6119136,0.4436418,0.0,1.156312,0.4915802,0.49432185,0.0,0.91004086,0.29879785,0.010402622,0.0,0.42653096,0.015614309,-0.17708439,0.0,792.1612,777.25275,832.8571,1028.2784,859.45056,0.0,0.0,-0.3690185546875,0.01409912109375,0.94158935546875,2.16827392578125,-6.34033203125,0.635528564453125,3665860.805860806,128473553.1135531,96297142.85714284,78.377014,1.0,2.0,1.0,1.0,2.0,20.0,,0 days 00:00:00
2023-11-16 12:20:33.800,0.52060324,1.0568194,0.8287653,0.0,1.1496149,0.6119136,0.4436418,0.0,1.156312,0.4915802,0.49432185,0.0,0.91004086,0.29879785,0.010402622,0.0,0.42653096,0.015614309,-0.17708439,0.0,771.2088,777.6557,826.4103,1027.8755,807.47253,0.0,0.0,-0.3690185546875,0.01409912109375,0.94158935546875,2.16827392578125,-6.34033203125,0.635528564453125,3665860.805860806,128473553.1135531,96297142.85714284,78.377014,1.0,2.0,1.0,1.0,2.0,20.0,,0 days 00:00:00
2023-11-16 12:20:33.800,0.52060324,1.0568194,0.8287653,0.0,1.1496149,0.6119136,0.4436418,0.0,1.156312,0.4915802,0.49432185,0.0,0.91004086,0.29879785,0.010402622,0.0,0.42653096,0.015614309,-0.17708439,0.0,784.10254,771.2088,831.6484,882.01465,897.326,0.0,0.0,-0.3690185546875,0.01409912109375,0.94158935546875,2.16827392578125,-6.34033203125,0.635528564453125,3665860.805860806,128473553.1135531,96297142.85714284,78.377014,1.0,2.0,1.0,1.0,2.0,20.0,,0 days 00:00:00
2023-11-16 12:20:33.801,0.52060324,1.0568194,0.8287653,0.0,1.1496149,0.6119136,0.4436418,0.0,1.156312,0.4915802,0.49432185,0.0,0.91004086,0.29879785,0.010402622,0.0,0.42653096,0.015614309,-0.17708439,0.0,805.8608,775.64105,826.8132,861.8681,1123.37,0.0,0.0,-0.3690185546875,0.01409912109375,0.94158935546875,2.16827392578125,-6.34033203125,0.635528564453125,3665860.805860806,128473553.1135531,96297142.85714284,78.377014,1.0,2.0,1.0,1.0,2.0,20.0,,0 days 00:00:00.001000
2023-11-16 12:20:33.801,0.52060324,1.0568194,0.8287653,0.0,1.1496149,0.6119136,0.4436418,0.0,1.156312,0.4915802,0.49432185,0.0,0.91004086,0.29879785,0.010402622,0.0,0.42653096,0.015614309,-0.17708439,0.0,813.91943,799.81683,829.2308,987.98535,922.3077,0.0,0.0,-0.3690185546875,0.01409912109375,0.94158935546875,2.16827392578125,-6.34033203125,0.635528564453125,3665860.805860806,128473553.1135531,96297142.85714284,78.377014,1.0,2.0,1.0,1.0,2.0,20.0,,0 days 00:00:00
2023-11-16 12:20:33.801,0.52060324,1.0568194,0.8287653,0.0,1.1496149,0.6119136,0.4436418,0.0,1.156312,0.4915802,0.49432185,0.0,0.91004086,0.29879785,0.010402622,0.0,0.42653096,0.015614309,-0.17708439,0.0,809.0842,799.81683,828.8278,1078.2417,719.2308,0.0,0.0,-0.3690185546875,0.01409912109375,0.94158935546875,2.16827392578125,-6.34033203125,0.635528564453125,3665860.805860806,128473553.1135531,96297142.85714284,78.377014,1.0,2.0,1.0,1.0,2.0,20.0,,0 days 00:00:00
2023-11-16 12:20:33.836,0.52060324,1.0568194,0.8287653,0.0,1.1496149,0.6119136,0.4436418,0.0,1.156312,0.4915802,0.49432185,0.0,0.91004086,0.29879785,0.010402622,0.0,0.42653096,0.015614309,-0.17708439,0.0,784.10254,788.93774,821.978,961.39197,745.82416,0.0,0.0,-0.40057373046875,0.00274658203125,0.959228515625,0.418701171875,-8.037567138671875,0.157012939453125,3665860.805860806,128473553.1135531,96297142.85714284,78.377014,1.0,2.0,1.0,1.0,2.0,20.0,,0 days 00:00:00.035000
2023-11-16 12:20:33.837,0.52060324,1.0568194,0.8287653,0.0,1.1496149,0.6119136,0.4436418,0.0,1.156312,0.4915802,0.49432185,0.0,0.91004086,0.29879785,0.010402622,0.0,0.42653096,0.015614309,-0.17708439,0.0,786.1172,794.9817,817.9487,846.55676,751.4652,0.0,0.0,-0.40057373046875,0.00274658203125,0.959228515625,0.418701171875,-8.037567138671875,0.157012939453125,3665860.805860806,128473553.1135531,96297142.85714284,78.377014,1.0,2.0,1.0,1.0,2.0,20.0,,0 days 00:00:00.001000
2023-11-16 12:20:33.837,0.52060324,1.0568194,0.8287653,0.0,1.1496149,0.6119136,0.4436418,0.0,1.156312,0.4915802,0.49432185,0.0,0.91004086,0.29879785,0.010402622,0.0,0.42653096,0.015614309,-0.17708439,0.0,809.4872,798.20514,822.7839,972.674,711.5751,0.0,0.0,-0.40057373046875,0.00274658203125,0.959228515625,0.418701171875,-8.037567138671875,0.157012939453125,3665860.805860806,128473553.1135531,96297142.85714284,78.377014,1.0,2.0,1.0,1.0,2.0,20.0,,0 days 00:00:00
2023-11-16 12:20:33.838,0.52060324,1.0568194,0.8287653,0.0,1.1496149,0.6119136,0.4436418,0.0,1.156312,0.4915802,0.49432185,0.0,0.91004086,0.29879785,0.010402622,0.0,0.42653096,0.015614309,-0.17708439,0.0,825.6044,796.1905,830.0366,1124.5787,732.52747,0.0,0.0,-0.40057373046875,0.00274658203125,0.959228515625,0.418701171875,-8.037567138671875,0.157012939453125,3665860.805860806,128473553.1135531,96297142.85714284,78.377014,1.0,2.0,1.0,1.0,2.0,20.0,,0 days 00:00:00.001000
2023-11-16 12:20:33.838,0.52060324,1.0568194,0.8287653,0.0,1.1496149,0.6119136,0.4436418,0.0,1.156312,0.4915802,0.49432185,0.0,0.91004086,0.29879785,0.010402622,0.0,0.42653096,0.015614309,-0.17708439,0.0,822.7839,803.8461,825.6044,1010.54944,775.2381,0.0,0.0,-0.40057373046875,0.00274658203125,0.959228515625,0.418701171875,-8.037567138671875,0.157012939453125,3665860.805860806,128473553.1135531,96297142.85714284,78.377014,1.0,2.0,1.0,1.0,2.0,20.0,,0 days 00:00:00
2023-11-16 12:20:33.838,0.52060324,1.0568194,0.8287653,0.0,1.1496149,0.6119136,0.4436418,0.0,1.156312,0.4915802,0.49432185,0.0,0.91004086,0.29879785,0.010402622,0.0,0.42653096,0.015614309,-0.17708439,0.0,798.20514,803.44324,815.12823,832.4542,767.98535,0.0,0.0,-0.40057373046875,0.00274658203125,0.959228515625,0.418701171875,-8.037567138671875,0.157012939453125,3665860.805860806,128473553.1135531,96297142.85714284,78.377014,1.0,2.0,1.0,1.0,2.0,20.0,,0 days 00:00:00
2023-11-16 12:20:33.839,0.52060324,1.0568194,0.8287653,0.0,1.1496149,0.6119136,0.4436418,0.0,1.156312,0.4915802,0.49432185,0.0,0.91004086,0.29879785,0.010402622,0.0,0.42653096,0.015614309,-0.17708439,0.0,788.93774,793.7729,807.47253,907.3993,762.74725,0.0,0.0,-0.40057373046875,0.00274658203125,0.959228515625,0.418701171875,-8.037567138671875,0.157012939453125,3665860.805860806,128473553.1135531,96297142.85714284,78.377014,1.0,2.0,1.0,1.0,2.0,20.0,,0 days 00:00:00.001000
2023-11-16 12:20:33.839,0.52060324,1.0568194,0.8287653,0.0,1.1496149,0.6119136,0.4436418,0.0,1.156312,0.4915802,0.49432185,0.0,0.91004086,0.29879785,0.010402622,0.0,0.42653096,0.015614309,-0.17708439,0.0,814.7253,795.78754,818.7546,1097.5824,835.2747,0.0,0.0,-0.40057373046875,0.00274658203125,0.959228515625,0.418701171875,-8.037567138671875,0.157012939453125,3665860.805860806,128473553.1135531,96297142.85714284,78.377014,1.0,2.0,1.0,1.0,2.0,20.0,,0 days 00:00:00
2023-11-16 12:20:33.840,0.52060324,1.0568194,0.8287653,0.0,1.1496149,0.6119136,0.4436418,0.0,1.156312,0.4915802,0.49432185,0.0,0.91004086,0.29879785,0.010402622,0.0,0.42653096,0.015614309,-0.17708439,0.0,826.4103,798.20514,826.8132,1075.0183,907.3993,0.0,0.0,-0.40057373046875,0.00274658203125,0.959228515625,0.418701171875,-8.037567138671875,0.157012939453125,3665860.805860806,128473553.1135531,96297142.85714284,78.377014,1.0,2.0,1.0,1.0,2.0,20.0,,0 days 00:00:00.001000
2023-11-16 12:20:33.840,0.52060324,1.0568194,0.8287653,0.0,1.1496149,0.6119136,0.4436418,0.0,1.156312,0.4915802,0.49432185,0.0,0.91004086,0.29879785,0.010402622,0.0,0.42653096,0.015614309,-0.17708439,0.0,811.9048,803.44324,813.5165,875.56775,776.8498,0.0,0.0,-0.40057373046875,0.00274658203125,0.959228515625,0.418701171875,-8.037567138671875,0.157012939453125,3665860.805860806,128473553.1135531,96297142.85714284,78.377014,1.0,2.0,1.0,1.0,2.0,20.0,,0 days 00:00:00
2023-11-16 12:20:33.840,0.52060324,1.0568194,0.8287653,0.0,1.1496149,0.6119136,0.4436418,0.0,1.156312,0.4915802,0.49432185,0.0,0.91004086,0.29879785,0.010402622,0.0,0.42653096,0.015614309,-0.17708439,0.0,818.3516,802.6374,808.68134,846.1539,651.9414,0.0,0.0,-0.40057373046875,0.00274658203125,0.959228515625,0.418701171875,-8.037567138671875,0.157012939453125,3665860.805860806,128473553.1135531,96297142.85714284,78.377014,1.0,2.0,1.0,1.0,2.0,20.0,,0 days 00:00:00
2023-11-16 12:20:33.841,0.52060324,1.0568194,0.8287653,0.0,1.1496149,0.6119136,0.4436418,0.0,1.156312,0.4915802,0.49432185,0.0,0.91004086,0.29879785,0.010402622,0.0,0.42653096,0.015614309,-0.17708439,0.0,826.0073,788.93774,808.2784,1027.8755,811.50183,0.0,0.0,-0.40057373046875,0.00274658203125,0.959228515625,0.418701171875,-8.037567138671875,0.157012939453125,3665860.805860806,128473553.1135531,96297142.85714284,78.377014,1.0,2.0,1.0,1.0,2.0,20.0,,0 days 00:00:00.001000
2023-11-16 12:20:33.874,0.52060324,1.0568194,0.8287653,0.0,1.1496149,0.6119136,0.4436418,0.0,1.156312,0.4915802,0.49432185,0.0,0.91004086,0.29879785,0.010402622,0.0,0.42653096,0.015614309,-0.17708439,0.0,813.1135,792.1612,811.0989,1070.1831,923.5165,0.0,0.0,-0.3955078125,-0.04052734375,0.94921875,-4.837493896484375,-8.23944091796875,-5.316009521484375,3661831.5018315017,128408278.38827838,96258461.53846154,79.20526,1.0,2.0,1.0,1.0,2.0,20.0,,0 days 00:00:00.033000
2023-11-16 12:20:33.875,0.52060324,1.0568194,0.8287653,0.0,1.1496149,0.6119136,0.4436418,0.0,1.156312,0.4915802,0.49432185,0.0,0.91004086,0.29879785,0.010402622,0.0,0.42653096,0.015614309,-0.17708439,0.0,810.696,809.0842,821.978,907.3993,782.8938,0.0,0.0,-0.3955078125,-0.04052734375,0.94921875,-4.837493896484375,-8.23944091796875,-5.316009521484375,3661831.5018315017,128408278.38827838,96258461.53846154,79.20526,1.0,2.0,1.0,1.0,2.0,20.0,,0 days 00:00:00.001000
2023-11-16 12:20:33.876,0.52060324,1.0568194,0.8287653,0.0,1.1496149,0.6119136,0.4436418,0.0,1.156312,0.4915802,0.49432185,0.0,0.91004086,0.29879785,0.010402622,0.0,0.42653096,0.015614309,-0.17708439,0.0,823.1868,804.65204,818.3516,840.5128,719.2308,0.0,0.0,-0.3955078125,-0.04052734375,0.94921875,-4.837493896484375,-8.23944091796875,-5.316009521484375,3661831.5018315017,128408278.38827838,96258461.53846154,79.20526,1.0,2.0,1.0,1.0,2.0,20.0,,0 days 00:00:00.001000
2023-11-16 12:20:33.876,0.52060324,1.0568194,0.8287653,0.0,1.1496149,0.6119136,0.4436418,0.0,1.156312,0.4915802,0.49432185,0.0,0.91004086,0.29879785,0.010402622,0.0,0.42653096,0.015614309,-0.17708439,0.0,828.4249,796.1905,812.3077,975.89746,801.02563,0.0,0.0,-0.3955078125,-0.04052734375,0.94921875,-4.837493896484375,-8.23944091796875,-5.316009521484375,3661831.5018315017,128408278.38827838,96258461.53846154,79.20526,1.0,2.0,1.0,1.0,2.0,20.0,,0 days 00:00:00
2023-11-16 12:20:33.877,0.52060324,1.0568194,0.8287653,0.0,1.1496149,0.6119136,0.4436418,0.0,1.156312,0.4915802,0.49432185,0.0,0.91004086,0.29879785,0.010402622,0.0,0.42653096,0.015614309,-0.17708439,0.0,811.50183,796.5934,805.05493,1075.0183,871.53845,0.0,0.0,-0.3955078125,-0.04052734375,0.94921875,-4.837493896484375,-8.23944091796875,-5.316009521484375,3661831.5018315017,128408278.38827838,96258461.53846154,79.20526,1.0,2.0,1.0,1.0,2.0,20.0,,0 days 00:00:00.001000
2023-11-16 12:20:33.877,0.52060324,1.0568194,0.8287653,0.0,1.1496149,0.6119136,0.4436418,0.0,1.156312,0.4915802,0.49432185,0.0,0.91004086,0.29879785,0.010402622,0.0,0.42653096,0.015614309,-0.17708439,0.0,819.15753,799.81683,808.68134,947.6923,892.0879,0.0,0.0,-0.3955078125,-0.04052734375,0.94921875,-4.837493896484375,-8.23944091796875,-5.316009521484375,3661831.5018315017,128408278.38827838,96258461.53846154,79.20526,1.0,2.0,1.0,1.0,2.0,20.0,,0 days 00:00:00
2023-11-16 12:20:33.878,0.52060324,1.0568194,0.8287653,0.0,1.1496149,0.6119136,0.4436418,0.0,1.156312,0.4915802,0.49432185,0.0,0.91004086,0.29879785,0.010402622,0.0,0.42653096,0.015614309,-0.17708439,0.0,817.1429,794.17584,813.1135,776.04395,835.6777,0.0,0.0,-0.3955078125,-0.04052734375,0.94921875,-4.837493896484375,-8.23944091796875,-5.316009521484375,3661831.5018315017,128408278.38827838,96258461.53846154,79.20526,1.0,2.0,1.0,1.0,2.0,20.0,,0 days 00:00:00.001000
2023-11-16 12:20:33.878,0.52060324,1.0568194,0.8287653,0.0,1.1496149,0.6119136,0.4436418,0.0,1.156312,0.4915802,0.49432185,0.0,0.91004086,0.29879785,0.010402622,0.0,0.42653096,0.015614309,-0.17708439,0.0,792.96704,784.5055,810.293,869.5238,1002.8938,0.0,0.0,-0.3955078125,-0.04052734375,0.94921875,-4.837493896484375,-8.23944091796875,-5.316009521484375,3661831.5018315017,128408278.38827838,96258461.53846154,79.20526,1.0,2.0,1.0,1.0,2.0,20.0,,0 days 00:00:00
2023-11-16 12:20:33.879,0.52060324,1.0568194,0.8287653,0.0,1.1496149,0.6119136,0.4436418,0.0,1.156312,0.4915802,0.49432185,0.0,0.91004086,0.29879785,0.010402622,0.0,0.42653096,0.015614309,-0.17708439,0.0,806.6667,786.52014,808.68134,995.64105,1136.6666,0.0,0.0,-0.3955078125,-0.04052734375,0.94921875,-4.837493896484375,-8.23944091796875,-5.316009521484375,3661831.5018315017,128408278.38827838,96258461.53846154,79.20526,1.0,2.0,1.0,1.0,2.0,20.0,,0 days 00:00:00.001000
2023-11-16 12:20:33.879,0.52060324,1.0568194,0.8287653,0.0,1.1496149,0.6119136,0.4436418,0.0,1.156312,0.4915802,0.49432185,0.0,0.91004086,0.29879785,0.010402622,0.0,0.42653096,0.015614309,-0.17708439,0.0,809.4872,800.2198,809.0842,807.8755,838.0952,0.0,0.0,-0.3955078125,-0.04052734375,0.94921875,-4.837493896484375,-8.23944091796875,-5.316009521484375,3661831.5018315017,128408278.38827838,96258461.53846154,79.20526,1.0,2.0,1.0,1.0,2.0,20.0,,0 days 00:00:00
2023-11-16 12:20:33.879,0.52060324,1.0568194,0.8287653,0.0,1.1496149,0.6119136,0.4436418,0.0,1.156312,0.4915802,0.49432185,0.0,0.91004086,0.29879785,0.010402622,0.0,0.42653096,0.015614309,-0.17708439,0.0,813.1135,794.17584,805.8608,573.7729,731.7216,0.0,0.0,-0.3955078125,-0.04052734375,0.94921875,-4.837493896484375,-8.23944091796875,-5.316009521484375,3661831.5018315017,128408278.38827838,96258461.53846154,79.20526,1.0,2.0,1.0,1.0,2.0,20.0,,0 days 00:00:00
2023-11-16 12:20:33.880,0.52060324,1.0568194,0.8287653,0.0,1.1496149,0.6119136,0.4436418,0.0,1.156312,0.4915802,0.49432185,0.0,0.91004086,0.29879785,0.010402622,0.0,0.42653096,0.015614309,-0.17708439,0.0,826.4103,776.4469,796.99634,573.36993,896.52014,0.0,0.0,-0.3955078125,-0.04052734375,0.94921875,-4.837493896484375,-8.23944091796875,-5.316009521484375,3661831.5018315017,128408278.38827838,96258461.53846154,79.20526,1.0,2.0,1.0,1.0,2.0,20.0,,0 days 00:00:00.001000
2023-11-16 12:20:33.901,0.52060324,1.0568194,0.8287653,0.0,1.1496149,0.6119136,0.4436418,0.0,1.156312,0.4915802,0.49432185,0.0,0.91004086,0.29879785,0.010402622,0.0,0.42653096,0.015614309,-0.17708439,0.0,823.5897,781.685,801.4286,683.7729,843.73627,0.0,0.0,-0.3955078125,-0.04052734375,0.94921875,-4.837493896484375,-8.23944091796875,-5.316009521484375,3661831.5018315017,128408278.38827838,96258461.53846154,79.20526,1.0,2.0,1.0,1.0,2.0,20.0,,0 days 00:00:00.021000
2023-11-16 12:20:33.902,0.52060324,1.0568194,0.8287653,0.0,1.1496149,0.6119136,0.4436418,0.0,1.156312,0.4915802,0.49432185,0.0,0.91004086,0.29879785,0.010402622,0.0,0.42653096,0.015614309,-0.17708439,0.0,814.3223,794.17584,808.68134,613.2601,658.7912,0.0,0.0,-0.3955078125,-0.04052734375,0.94921875,-4.837493896484375,-8.23944091796875,-5.316009521484375,3661831.5018315017,128408278.38827838,96258461.53846154,79.20526,1.0,2.0,1.0,1.0,2.0,20.0,,0 days 00:00:00.001000
2023-11-16 12:20:33.903,0.52060324,1.0568194,0.8287653,0.0,1.1496149,0.6119136,0.4436418,0.0,1.156312,0.4915802,0.49432185,0.0,0.91004086,0.29879785,0.010402622,0.0,0.42653096,0.015614309,-0.17708439,0.0,817.5458,786.9231,803.44324,380.3663,737.76556,0.0,0.0,-0.3955078125,-0.04052734375,0.94921875,-4.837493896484375,-8.23944091796875,-5.316009521484375,3661831.5018315017,128408278.38827838,96258461.53846154,79.20526,1.0,2.0,1.0,1.0,2.0,20.0,,0 days 00:00:00.001000
2023-11-16 12:20:33.904,0.52060324,1.0568194,0.8287653,0.0,1.1496149,0.6119136,0.4436418,0.0,1.156312,0.4915802,0.49432185,0.0,0.91004086,0.29879785,0.010402622,0.0,0.42653096,0.015614309,-0.17708439,0.0,816.7399,786.52014,798.20514,285.27472,791.75824,0.0,0.0,-0.3955078125,-0.04052734375,0.94921875,-4.837493896484375,-8.23944091796875,-5.316009521484375,3661831.5018315017,128408278.38827838,96258461.53846154,79.20526,1.0,2.0,1.0,1.0,2.0,20.0,,0 days 00:00:00.001000
2023-11-16 12:20:33.904,0.52060324,1.0568194,0.8287653,0.0,1.1496149,0.6119136,0.4436418,0.0,1.156312,0.4915802,0.49432185,0.0,0.91004086,0.29879785,0.010402622,0.0,0.42653096,0.015614309,-0.17708439,0.0,807.8755,784.90845,798.20514,362.23444,751.8681,0.0,0.0,-0.3955078125,-0.04052734375,0.94921875,-4.837493896484375,-8.23944091796875,-5.316009521484375,3661831.5018315017,128408278.38827838,96258461.53846154,79.20526,1.0,2.0,1.0,1.0,2.0,20.0,,0 days 00:00:00
2023-11-16 12:20:33.904,0.52060324,1.0568194,0.8287653,0.0,1.1496149,0.6119136,0.4436418,0.0,1.156312,0.4915802,0.49432185,0.0,0.91004086,0.29879785,0.010402622,0.0,0.42653096,0.015614309,-0.17708439,0.0,795.38464,777.25275,798.60803,323.5531,750.2564,0.0,0.0,-0.3955078125,-0.04052734375,0.94921875,-4.837493896484375,-8.23944091796875,-5.316009521484375,3661831.5018315017,128408278.38827838,96258461.53846154,79.20526,1.0,2.0,1.0,1.0,2.0,20.0,,0 days 00:00:00
2023-11-16 12:20:33.905,0.52060324,1.0568194,0.8287653,0.0,1.1496149,0.6119136,0.4436418,0.0,1.156312,0.4915802,0.49432185,0.0,0.91004086,0.29879785,0.010402622,0.0,0.42653096,0.015614309,-0.17708439,0.0,807.47253,784.90845,798.60803,112.41758,823.9927,0.0,0.0,-0.3955078125,-0.04052734375,0.94921875,-4.837493896484375,-8.23944091796875,-5.316009521484375,3661831.5018315017,128408278.38827838,96258461.53846154,79.20526,1.0,2.0,1.0,1.0,2.0,20.0,,0 days 00:00:00.001000
2023-11-16 12:20:33.905,0.52060324,1.0568194,0.8287653,0.0,1.1496149,0.6119136,0.4436418,0.0,1.156312,0.4915802,0.49432185,0.0,0.91004086,0.29879785,0.010402622,0.0,0.42653096,0.015614309,-0.17708439,0.0,815.5311,790.14655,800.6227,0.0,1051.2454,0.0,0.0,-0.3955078125,-0.04052734375,0.94921875,-4.837493896484375,-8.23944091796875,-5.316009521484375,3661831.5018315017,128408278.38827838,96258461.53846154,79.20526,1.0,2.0,1.0,1.0,2.0,20.0,,0 days 00:00:00
2023-11-16 12:20:33.905,0.52060324,1.0568194,0.8287653,0.0,1.1496149,0.6119136,0.4436418,0.0,1.156312,0.4915802,0.49432185,0.0,0.91004086,0.29879785,0.010402622,0.0,0.42653096,0.015614309,-0.17708439,0.0,799.81683,794.17584,801.02563,4.029304,890.87915,0.0,0.0,-0.3955078125,-0.04052734375,0.94921875,-4.837493896484375,-8.23944091796875,-5.316009521484375,3661831.5018315017,128408278.38827838,96258461.53846154,79.20526,1.0,2.0,1.0,1.0,2.0,20.0,,0 days 00:00:00
2023-11-16 12:20:33.906,0.52060324,1.0568194,0.8287653,0.0,1.1496149,0.6119136,0.4436418,0.0,1.156312,0.4915802,0.49432185,0.0,0.91004086,0.29879785,0.010402622,0.0,0.42653096,0.015614309,-0.17708439,0.0,760.7326,790.9524,802.23444,1.6117216,656.77655,0.0,0.0,-0.3955078125,-0.04052734375,0.94921875,-4.837493896484375,-8.23944091796875,-5.316009521484375,3661831.5018315017,128408278.38827838,96258461.53846154,79.20526,1.0,2.0,1.0,1.0,2.0,20.0,,0 days 00:00:00.001000
2023-11-16 12:20:33.906,0.52060324,1.0568194,0.8287653,0.0,1.1496149,0.6119136,0.4436418,0.0,1.156312,0.4915802,0.49432185,0.0,0.91004086,0.29879785,0.010402622,0.0,0.42653096,0.015614309,-0.17708439,0.0,755.4945,790.9524,804.65204,0.0,744.21246,0.0,0.0,-0.3955078125,-0.04052734375,0.94921875,-4.837493896484375,-8.23944091796875,-5.316009521484375,3661831.5018315017,128408278.38827838,96258461.53846154,79.20526,1.0,2.0,1.0,1.0,2.0,20.0,,0 days 00:00:00
2023-11-16 12:20:33.906,0.52060324,1.0568194,0.8287653,0.0,1.1496149,0.6119136,0.4436418,0.0,1.156312,0.4915802,0.49432185,0.0,0.91004086,0.29879785,0.010402622,0.0,0.42653096,0.015614309,-0.17708439,0.0,766.77655,805.4579,796.5934,0.0,653.95605,0.0,0.0,-0.3955078125,-0.04052734375,0.94921875,-4.837493896484375,-8.23944091796875,-5.316009521484375,3661831.5018315017,128408278.38827838,96258461.53846154,79.20526,1.0,2.0,1.0,1.0,2.0,20.0,,0 days 00:00:00
2023-11-16 12:20:33.971,0.52060324,1.0568194,0.8287653,0.0,1.1496149,0.6119136,0.4436418,0.0,1.156312,0.4915802,0.49432185,0.0,0.91004086,0.29879785,0.010402622,0.0,0.42653096,0.015614309,-0.17708439,0.0,755.4945,802.6374,796.5934,0.0,638.6447,0.0,0.0,-0.30718994140625,0.02935791015625,0.85675048828125,4.88983154296875,-9.832000732421877,4.837493896484375,3667472.527472527,128392161.17216116,96295531.13553111,79.98503,1.0,2.0,1.0,1.0,2.0,20.0,,0 days 00:00:00.065000
2023-11-16 12:20:33.972,0.52060324,1.0568194,0.8287653,0.0,1.1496149,0.6119136,0.4436418,0.0,1.156312,0.4915802,0.49432185,0.0,0.91004086,0.29879785,0.010402622,0.0,0.42653096,0.015614309,-0.17708439,0.0,761.13556,805.4579,810.696,0.0,689.011,0.0,0.0,-0.30718994140625,0.02935791015625,0.85675048828125,4.88983154296875,-9.832000732421877,4.837493896484375,3667472.527472527,128392161.17216116,96295531.13553111,79.98503,1.0,2.0,1.0,1.0,2.0,20.0,,0 days 00:00:00.001000
2023-11-16 12:20:33.973,0.52060324,1.0568194,0.8287653,0.0,1.1496149,0.6119136,0.4436418,0.0,1.156312,0.4915802,0.49432185,0.0,0.91004086,0.29879785,0.010402622,0.0,0.42653096,0.015614309,-0.17708439,0.0,757.50916,805.8608,806.26373,0.0,702.3077,0.0,0.0,-0.30718994140625,0.02935791015625,0.85675048828125,4.88983154296875,-9.832000732421877,4.837493896484375,3667472.527472527,128392161.17216116,96295531.13553111,79.98503,1.0,2.0,1.0,1.0,2.0,20.0,,0 days 00:00:00.001000
2023-11-16 12:20:33.973,0.52060324,1.0568194,0.8287653,0.0,1.1496149,0.6119136,0.4436418,0.0,1.156312,0.4915802,0.49432185,0.0,0.91004086,0.29879785,0.010402622,0.0,0.42653096,0.015614309,-0.17708439,0.0,737.76556,799.41394,791.3553,0.0,737.76556,0.0,0.0,-0.30718994140625,0.02935791015625,0.85675048828125,4.88983154296875,-9.832000732421877,4.837493896484375,3667472.527472527,128392161.17216116,96295531.13553111,79.98503,1.0,2.0,1.0,1.0,2.0,20.0,,0 days 00:00:00
2023-11-16 12:20:33.974,0.52060324,1.0568194,0.8287653,0.0,1.1496149,0.6119136,0.4436418,0.0,1.156312,0.4915802,0.49432185,0.0,0.91004086,0.29879785,0.010402622,0.0,0.42653096,0.015614309,-0.17708439,0.0,745.0183,803.8461,801.4286,0.0,738.97437,0.0,0.0,-0.30718994140625,0.02935791015625,0.85675048828125,4.88983154296875,-9.832000732421877,4.837493896484375,3667472.527472527,128392161.17216116,96295531.13553111,79.98503,1.0,2.0,1.0,1.0,2.0,20.0,,0 days 00:00:00.001000
2023-11-16 12:20:33.974,0.52060324,1.0568194,0.8287653,0.0,1.1496149,0.6119136,0.4436418,0.0,1.156312,0.4915802,0.49432185,0.0,0.91004086,0.29879785,0.010402622,0.0,0.42653096,0.015614309,-0.17708439,0.0,766.77655,808.2784,807.47253,0.0,738.1685,0.0,0.0,-0.30718994140625,0.02935791015625,0.85675048828125,4.88983154296875,-9.832000732421877,4.837493896484375,3667472.527472527,128392161.17216116,96295531.13553111,79.98503,1.0,2.0,1.0,1.0,2.0,20.0,,0 days 00:00:00
2023-11-16 12:20:33.975,0.52060324,1.0568194,0.8287653,0.0,1.1496149,0.6119136,0.4436418,0.0,1.156312,0.4915802,0.49432185,0.0,0.91004086,0.29879785,0.010402622,0.0,0.42653096,0.015614309,-0.17708439,0.0,771.2088,808.2784,803.0403,6.4468865,1004.5055,0.0,0.0,-0.30718994140625,0.02935791015625,0.85675048828125,4.88983154296875,-9.832000732421877,4.837493896484375,3667472.527472527,128392161.17216116,96295531.13553111,79.98503,1.0,2.0,1.0,1.0,2.0,20.0,,0 days 00:00:00.001000
2023-11-16 12:20:33.975,0.52060324,1.0568194,0.8287653,0.0,1.1496149,0.6119136,0.4436418,0.0,1.156312,0.4915802,0.49432185,0.0,0.91004086,0.29879785,0.010402622,0.0,0.42653096,0.015614309,-0.17708439,0.0,755.89746,808.2784,800.6227,10.476191,1137.0696,0.0,0.0,-0.30718994140625,0.02935791015625,0.85675048828125,4.88983154296875,-9.832000732421877,4.837493896484375,3667472.527472527,128392161.17216116,96295531.13553111,79.98503,1.0,2.0,1.0,1.0,2.0,20.0,,0 days 00:00:00
2023-11-16 12:20:33.976,0.52060324,1.0568194,0.8287653,0.0,1.1496149,0.6119136,0.4436418,0.0,1.156312,0.4915802,0.49432185,0.0,0.91004086,0.29879785,0.010402622,0.0,0.42653096,0.015614309,-0.17708439,0.0,755.4945,812.71063,797.3993,0.0,888.0586,0.0,0.0,-0.30718994140625,0.02935791015625,0.85675048828125,4.88983154296875,-9.832000732421877,4.837493896484375,3667472.527472527,128392161.17216116,96295531.13553111,79.98503,1.0,2.0,1.0,1.0,2.0,20.0,,0 days 00:00:00.001000
2023-11-16 12:20:33.976,0.52060324,1.0568194,0.8287653,0.0,1.1496149,0.6119136,0.4436418,0.0,1.156312,0.4915802,0.49432185,0.0,0.91004086,0.29879785,0.010402622,0.0,0.42653096,0.015614309,-0.17708439,0.0,787.72894,815.9341,803.0403,160.3663,770.0,0.0,0.0,-0.30718994140625,0.02935791015625,0.85675048828125,4.88983154296875,-9.832000732421877,4.837493896484375,3667472.527472527,128392161.17216116,96295531.13553111,79.98503,1.0,2.0,1.0,1.0,2.0,20.0,,0 days 00:00:00
2023-11-16 12:20:33.976,0.52060324,1.0568194,0.8287653,0.0,1.1496149,0.6119136,0.4436418,0.0,1.156312,0.4915802,0.49432185,0.0,0.91004086,0.29879785,0.010402622,0.0,0.42653096,0.015614309,-0.17708439,0.0,807.0696,802.6374,808.68134,385.20148,920.293,0.0,0.0,-0.30718994140625,0.02935791015625,0.85675048828125,4.88983154296875,-9.832000732421877,4.837493896484375,3667472.527472527,128392161.17216116,96295531.13553111,79.98503,1.0,2.0,1.0,1.0,2.0,20.0,,0 days 00:00:00
2023-11-16 12:20:33.977,0.52060324,1.0568194,0.8287653,0.0,1.1496149,0.6119136,0.4436418,0.0,1.156312,0.4915802,0.49432185,0.0,0.91004086,0.29879785,0.010402622,0.0,0.42653096,0.015614309,-0.17708439,0.0,789.7436,798.20514,805.05493,300.18314,941.6484,0.0,0.0,-0.30718994140625,0.02935791015625,0.85675048828125,4.88983154296875,-9.832000732421877,4.837493896484375,3667472.527472527,128392161.17216116,96295531.13553111,79.98503,1.0,2.0,1.0,1.0,2.0,20.0,,0 days 00:00:00.001000
2023-11-16 12:20:34.038,0.52060324,1.0568194,0.8287653,0.0,1.1496149,0.6119136,0.4436418,0.0,1.156312,0.4915802,0.49432185,0.0,0.91004086,0.29879785,0.010402622,0.0,0.42653096,0.015614309,-0.17708439,0.0,784.90845,812.3077,806.6667,211.13553,738.5714,0.0,0.0,-0.42523193359375,-0.003173828125,1.0081787109375,-2.489776611328125,-2.392578125,0.85235595703125,3667472.527472527,128392161.17216116,96295531.13553111,79.98503,1.0,2.0,1.0,1.0,2.0,20.0,,0 days 00:00:00.061000
2023-11-16 12:20:34.039,0.52060324,1.0568194,0.8287653,0.0,1.1496149,0.6119136,0.4436418,0.0,1.156312,0.4915802,0.49432185,0.0,0.91004086,0.29879785,0.010402622,0.0,0.42653096,0.015614309,-0.17708439,0.0,805.05493,808.2784,807.0696,378.75458,722.0513,0.0,0.0,-0.42523193359375,-0.003173828125,1.0081787109375,-2.489776611328125,-2.392578125,0.85235595703125,3667472.527472527,128392161.17216116,96295531.13553111,79.98503,1.0,2.0,1.0,1.0,2.0,20.0,,0 days 00:00:00.001000
2023-11-16 12:20:34.039,0.52060324,1.0568194,0.8287653,0.0,1.1496149,0.6119136,0.4436418,0.0,1.156312,0.4915802,0.49432185,0.0,0.91004086,0.29879785,0.010402622,0.0,0.42653096,0.015614309,-0.17708439,0.0,792.1612,801.4286,802.6374,536.7033,698.2784,0.0,0.0,-0.42523193359375,-0.003173828125,1.0081787109375,-2.489776611328125,-2.392578125,0.85235595703125,3667472.527472527,128392161.17216116,96295531.13553111,79.98503,1.0,2.0,1.0,1.0,2.0,20.0,,0 days 00:00:00
2023-11-16 12:20:34.040,0.52060324,1.0568194,0.8287653,0.0,1.1496149,0.6119136,0.4436418,0.0,1.156312,0.4915802,0.49432185,0.0,0.91004086,0.29879785,0.010402622,0.0,0.42653096,0.015614309,-0.17708439,0.0,818.3516,822.7839,822.381,503.26007,719.6337,0.0,0.0,-0.42523193359375,-0.003173828125,1.0081787109375,-2.489776611328125,-2.392578125,0.85235595703125,3667472.527472527,128392161.17216116,96295531.13553111,79.98503,1.0,2.0,1.0,1.0,4.0,20.0,,0 days 00:00:00.001000
2023-11-16 12:20:34.042,0.52060324,1.0568194,0.8287653,0.0,1.1496149,0.6119136,0.4436418,0.0,1.156312,0.4915802,0.49432185,0.0,0.91004086,0.29879785,0.010402622,0.0,0.42653096,0.015614309,-0.17708439,0.0,844.94507,829.2308,820.7692,429.12088,753.47986,0.0,0.0,-0.42523193359375,-0.003173828125,1.0081787109375,-2.489776611328125,-2.392578125,0.85235595703125,3667472.527472527,128392161.17216116,96295531.13553111,79.98503,1.0,2.0,1.0,1.0,4.0,20.0,,0 days 00:00:00.002000
2023-11-16 12:20:34.042,0.52060324,1.0568194,0.8287653,0.0,1.1496149,0.6119136,0.4436418,0.0,1.156312,0.4915802,0.49432185,0.0,0.91004086,0.29879785,0.010402622,0.0,0.42653096,0.015614309,-0.17708439,0.0,837.28937,807.47253,802.6374,567.326,834.87177,0.0,0.0,-0.42523193359375,-0.003173828125,1.0081787109375,-2.489776611328125,-2.392578125,0.85235595703125,3667472.527472527,128392161.17216116,96295531.13553111,79.98503,1.0,2.0,1.0,1.0,4.0,20.0,,0 days 00:00:00
2023-11-16 12:20:34.043,0.52060324,1.0568194,0.8287653,0.0,1.1496149,0.6119136,0.4436418,0.0,1.156312,0.4915802,0.49432185,0.0,0.91004086,0.29879785,0.010402622,0.0,0.42653096,0.015614309,-0.17708439,0.0,845.7509,808.2784,811.0989,827.619,986.77655,0.0,0.0,-0.42523193359375,-0.003173828125,1.0081787109375,-2.489776611328125,-2.392578125,0.85235595703125,3667472.527472527,128392161.17216116,96295531.13553111,79.98503,1.0,2.0,1.0,1.0,4.0,20.0,,0 days 00:00:00.001000
2023-11-16 12:20:34.043,0.52060324,1.0568194,0.8287653,0.0,1.1496149,0.6119136,0.4436418,0.0,1.156312,0.4915802,0.49432185,0.0,0.91004086,0.29879785,0.010402622,0.0,0.42653096,0.015614309,-0.17708439,0.0,845.7509,817.5458,810.293,812.3077,899.34064,0.0,0.0,-0.42523193359375,-0.003173828125,1.0081787109375,-2.489776611328125,-2.392578125,0.85235595703125,3667472.527472527,128392161.17216116,96295531.13553111,79.98503,1.0,2.0,1.0,1.0,4.0,20.0,,0 days 00:00:00
2023-11-16 12:20:34.044,0.52060324,1.0568194,0.8287653,0.0,1.1496149,0.6119136,0.4436418,0.0,1.156312,0.4915802,0.49432185,0.0,0.91004086,0.29879785,0.010402622,0.0,0.42653096,0.015614309,-0.17708439,0.0,845.7509,815.9341,807.0696,645.4945,761.9414,0.0,0.0,-0.42523193359375,-0.003173828125,1.0081787109375,-2.489776611328125,-2.392578125,0.85235595703125,3667472.527472527,128392161.17216116,96295531.13553111,79.98503,1.0,2.0,1.0,1.0,4.0,20.0,,0 days 00:00:00.001000
2023-11-16 12:20:34.044,0.52060324,1.0568194,0.8287653,0.0,1.1496149,0.6119136,0.4436418,0.0,1.156312,0.4915802,0.49432185,0.0,0.91004086,0.29879785,0.010402622,0.0,0.42653096,0.015614309,-0.17708439,0.0,832.8571,808.2784,809.4872,705.9341,847.76556,0.0,0.0,-0.42523193359375,-0.003173828125,1.0081787109375,-2.489776611328125,-2.392578125,0.85235595703125,3667472.527472527,128392161.17216116,96295531.13553111,79.98503,1.0,2.0,1.0,1.0,4.0,20.0,,0 days 00:00:00
2023-11-16 12:20:34.045,0.52060324,1.0568194,0.8287653,0.0,1.1496149,0.6119136,0.4436418,0.0,1.156312,0.4915802,0.49432185,0.0,0.91004086,0.29879785,0.010402622,0.0,0.42653096,0.015614309,-0.17708439,0.0,835.2747,797.3993,807.0696,923.5165,936.0073,0.0,0.0,-0.42523193359375,-0.003173828125,1.0081787109375,-2.489776611328125,-2.392578125,0.85235595703125,3667472.527472527,128392161.17216116,96295531.13553111,79.98503,1.0,2.0,1.0,1.0,4.0,20.0,,0 days 00:00:00.001000
2023-11-16 12:20:34.045,0.52060324,1.0568194,0.8287653,0.0,1.1496149,0.6119136,0.4436418,0.0,1.156312,0.4915802,0.49432185,0.0,0.91004086,0.29879785,0.010402622,0.0,0.42653096,0.015614309,-0.17708439,0.0,842.1245,807.47253,808.2784,987.1795,878.7912,0.0,0.0,-0.42523193359375,-0.003173828125,1.0081787109375,-2.489776611328125,-2.392578125,0.85235595703125,3667472.527472527,128392161.17216116,96295531.13553111,79.98503,1.0,2.0,1.0,1.0,4.0,20.0,,0 days 00:00:00
2023-11-16 12:20:34.078,0.52060324,1.0568194,0.8287653,0.0,1.1496149,0.6119136,0.4436418,0.0,1.156312,0.4915802,0.49432185,0.0,0.91004086,0.29879785,0.010402622,0.0,0.42653096,0.015614309,-0.17708439,0.0,851.79486,813.91943,803.0403,852.1978,848.5714,0.0,0.0,-0.36187744140625,-0.017333984375,0.9481201171875,-1.375732421875,-3.7982177734375,3.3197021484375,3669084.249084249,128348644.68864468,96270549.45054944,80.71917,1.0,2.0,1.0,1.0,4.0,20.0,,0 days 00:00:00.033000
2023-11-16 12:20:34.078,0.52060324,1.0568194,0.8287653,0.0,1.1496149,0.6119136,0.4436418,0.0,1.156312,0.4915802,0.49432185,0.0,0.91004086,0.29879785,0.010402622,0.0,0.42653096,0.015614309,-0.17708439,0.0,844.94507,799.41394,793.36993,786.52014,790.14655,0.0,0.0,-0.36187744140625,-0.017333984375,0.9481201171875,-1.375732421875,-3.7982177734375,3.3197021484375,3669084.249084249,128348644.68864468,96270549.45054944,80.71917,1.0,2.0,1.0,1.0,4.0,20.0,,0 days 00:00:00
2023-11-16 12:20:34.079,0.52060324,1.0568194,0.8287653,0.0,1.1496149,0.6119136,0.4436418,0.0,1.156312,0.4915802,0.49432185,0.0,0.91004086,0.29879785,0.010402622,0.0,0.42653096,0.015614309,-0.17708439,0.0,846.55676,796.99634,795.78754,960.58606,774.0293,0.0,0.0,-0.36187744140625,-0.017333984375,0.9481201171875,-1.375732421875,-3.7982177734375,3.3197021484375,3669084.249084249,128348644.68864468,96270549.45054944,80.71917,1.0,2.0,1.0,1.0,4.0,20.0,,0 days 00:00:00.001000
2023-11-16 12:20:34.079,0.52060324,1.0568194,0.8287653,0.0,1.1496149,0.6119136,0.4436418,0.0,1.156312,0.4915802,0.49432185,0.0,0.91004086,0.29879785,0.010402622,0.0,0.42653096,0.015614309,-0.17708439,0.0,861.4652,803.44324,796.1905,1092.7472,781.685,0.0,0.0,-0.36187744140625,-0.017333984375,0.9481201171875,-1.375732421875,-3.7982177734375,3.3197021484375,3669084.249084249,128348644.68864468,96270549.45054944,80.71917,1.0,2.0,1.0,1.0,4.0,20.0,,0 days 00:00:00
2023-11-16 12:20:34.080,0.52060324,1.0568194,0.8287653,0.0,1.1496149,0.6119136,0.4436418,0.0,1.156312,0.4915802,0.49432185,0.0,0.91004086,0.29879785,0.010402622,0.0,0.42653096,0.015614309,-0.17708439,0.0,850.989,806.26373,797.3993,965.82416,730.9158,0.0,0.0,-0.36187744140625,-0.017333984375,0.9481201171875,-1.375732421875,-3.7982177734375,3.3197021484375,3669084.249084249,128348644.68864468,96270549.45054944,80.71917,1.0,2.0,1.0,1.0,4.0,20.0,,0 days 00:00:00.001000
2023-11-16 12:20:34.080,0.52060324,1.0568194,0.8287653,0.0,1.1496149,0.6119136,0.4436418,0.0,1.156312,0.4915802,0.49432185,0.0,0.91004086,0.29879785,0.010402622,0.0,0.42653096,0.015614309,-0.17708439,0.0,840.10986,804.2491,801.02563,909.81683,880.80585,0.0,0.0,-0.36187744140625,-0.017333984375,0.9481201171875,-1.375732421875,-3.7982177734375,3.3197021484375,3669084.249084249,128348644.68864468,96270549.45054944,80.71917,1.0,2.0,1.0,1.0,4.0,20.0,,0 days 00:00:00
2023-11-16 12:20:34.080,0.52060324,1.0568194,0.8287653,0.0,1.1496149,0.6119136,0.4436418,0.0,1.156312,0.4915802,0.49432185,0.0,0.91004086,0.29879785,0.010402622,0.0,0.42653096,0.015614309,-0.17708439,0.0,859.0476,798.60803,799.41394,1087.5092,1000.07324,0.0,0.0,-0.36187744140625,-0.017333984375,0.9481201171875,-1.375732421875,-3.7982177734375,3.3197021484375,3669084.249084249,128348644.68864468,96270549.45054944,80.71917,1.0,2.0,1.0,1.0,4.0,20.0,,0 days 00:00:00
2023-11-16 12:20:34.081,0.52060324,1.0568194,0.8287653,0.0,1.1496149,0.6119136,0.4436418,0.0,1.156312,0.4915802,0.49432185,0.0,0.91004086,0.29879785,0.010402622,0.0,0.42653096,0.015614309,-0.17708439,0.0,867.1062,804.65204,798.20514,1213.2234,884.0293,0.0,0.0,-0.36187744140625,-0.017333984375,0.9481201171875,-1.375732421875,-3.7982177734375,3.3197021484375,3669084.249084249,128348644.68864468,96270549.45054944,80.71917,1.0,2.0,1.0,1.0,4.0,20.0,,0 days 00:00:00.001000
2023-11-16 12:20:34.081,0.52060324,1.0568194,0.8287653,0.0,1.1496149,0.6119136,0.4436418,0.0,1.156312,0.4915802,0.49432185,0.0,0.91004086,0.29879785,0.010402622,0.0,0.42653096,0.015614309,-0.17708439,0.0,851.39197,809.0842,802.6374,1119.3407,820.3663,0.0,0.0,-0.36187744140625,-0.017333984375,0.9481201171875,-1.375732421875,-3.7982177734375,3.3197021484375,3669084.249084249,128348644.68864468,96270549.45054944,80.71917,1.0,2.0,1.0,1.0,4.0,20.0,,0 days 00:00:00
2023-11-16 12:20:34.082,0.52060324,1.0568194,0.8287653,0.0,1.1496149,0.6119136,0.4436418,0.0,1.156312,0.4915802,0.49432185,0.0,0.91004086,0.29879785,0.010402622,0.0,0.42653096,0.015614309,-0.17708439,0.0,845.7509,797.3993,799.011,996.4469,954.1392,0.0,0.0,-0.36187744140625,-0.017333984375,0.9481201171875,-1.375732421875,-3.7982177734375,3.3197021484375,3669084.249084249,128348644.68864468,96270549.45054944,80.71917,1.0,2.0,1.0,1.0,4.0,20.0,,0 days 00:00:00.001000
2023-11-16 12:20:34.082,0.52060324,1.0568194,0.8287653,0.0,1.1496149,0.6119136,0.4436418,0.0,1.156312,0.4915802,0.49432185,0.0,0.91004086,0.29879785,0.010402622,0.0,0.42653096,0.015614309,-0.17708439,0.0,846.9597,790.9524,798.20514,1068.5714,1029.0842,0.0,0.0,-0.36187744140625,-0.017333984375,0.9481201171875,-1.375732421875,-3.7982177734375,3.3197021484375,3669084.249084249,128348644.68864468,96270549.45054944,80.71917,1.0,2.0,1.0,1.0,4.0,20.0,,0 days 00:00:00
2023-11-16 12:20:34.083,0.52060324,1.0568194,0.8287653,0.0,1.1496149,0.6119136,0.4436418,0.0,1.156312,0.4915802,0.49432185,0.0,0.91004086,0.29879785,0.010402622,0.0,0.42653096,0.015614309,-0.17708439,0.0,848.97437,804.2491,802.6374,1200.3297,821.978,0.0,0.0,-0.36187744140625,-0.017333984375,0.9481201171875,-1.375732421875,-3.7982177734375,3.3197021484375,3669084.249084249,128348644.68864468,96270549.45054944,80.71917,1.0,2.0,1.0,1.0,4.0,20.0,,0 days 00:00:00.001000
2023-11-16 12:20:34.118,0.52060324,1.0568194,0.8287653,0.0,1.1496149,0.6119136,0.4436418,0.0,1.156312,0.4915802,0.49432185,0.0,0.91004086,0.29879785,0.010402622,0.0,0.42653096,0.015614309,-0.17708439,0.0,844.1392,802.23444,799.41394,1165.2748,812.71063,0.0,0.0,-0.3570556640625,-0.00787353515625,0.917724609375,-0.2093505859375,-9.58526611328125,3.686065673828125,3669084.249084249,128348644.68864468,96270549.45054944,80.71917,1.0,2.0,1.0,1.0,4.0,20.0,,0 days 00:00:00.035000
2023-11-16 12:20:34.118,0.52060324,1.0568194,0.8287653,0.0,1.1496149,0.6119136,0.4436418,0.0,1.156312,0.4915802,0.49432185,0.0,0.91004086,0.29879785,0.010402622,0.0,0.42653096,0.015614309,-0.17708439,0.0,832.0513,795.38464,798.60803,963.8095,814.3223,0.0,0.0,-0.3570556640625,-0.00787353515625,0.917724609375,-0.2093505859375,-9.58526611328125,3.686065673828125,3669084.249084249,128348644.68864468,96270549.45054944,80.71917,1.0,2.0,1.0,1.0,4.0,20.0,,0 days 00:00:00
2023-11-16 12:20:34.119,0.52060324,1.0568194,0.8287653,0.0,1.1496149,0.6119136,0.4436418,0.0,1.156312,0.4915802,0.49432185,0.0,0.91004086,0.29879785,0.010402622,0.0,0.42653096,0.015614309,-0.17708439,0.0,834.0659,805.05493,796.5934,918.68134,742.1978,0.0,0.0,-0.3570556640625,-0.00787353515625,0.917724609375,-0.2093505859375,-9.58526611328125,3.686065673828125,3669084.249084249,128348644.68864468,96270549.45054944,80.71917,1.0,2.0,1.0,1.0,4.0,20.0,,0 days 00:00:00.001000
2023-11-16 12:20:34.119,0.52060324,1.0568194,0.8287653,0.0,1.1496149,0.6119136,0.4436418,0.0,1.156312,0.4915802,0.49432185,0.0,0.91004086,0.29879785,0.010402622,0.0,0.42653096,0.015614309,-0.17708439,0.0,826.4103,806.6667,792.1612,1057.2894,757.1062,0.0,0.0,-0.3570556640625,-0.00787353515625,0.917724609375,-0.2093505859375,-9.58526611328125,3.686065673828125,3669084.249084249,128348644.68864468,96270549.45054944,80.71917,1.0,2.0,1.0,1.0,4.0,20.0,,0 days 00:00:00
2023-11-16 12:20:34.119,0.52060324,1.0568194,0.8287653,0.0,1.1496149,0.6119136,0.4436418,0.0,1.156312,0.4915802,0.49432185,0.0,0.91004086,0.29879785,0.010402622,0.0,0.42653096,0.015614309,-0.17708439,0.0,820.7692,803.44324,794.9817,1082.674,858.24176,0.0,0.0,-0.3570556640625,-0.00787353515625,0.917724609375,-0.2093505859375,-9.58526611328125,3.686065673828125,3669084.249084249,128348644.68864468,96270549.45054944,80.71917,1.0,2.0,1.0,1.0,4.0,20.0,,0 days 00:00:00
2023-11-16 12:20:34.120,0.52060324,1.0568194,0.8287653,0.0,1.1496149,0.6119136,0.4436418,0.0,1.156312,0.4915802,0.49432185,0.0,0.91004086,0.29879785,0.010402622,0.0,0.42653096,0.015614309,-0.17708439,0.0,828.4249,807.0696,801.02563,928.7546,951.31866,0.0,0.0,-0.3570556640625,-0.00787353515625,0.917724609375,-0.2093505859375,-9.58526611328125,3.686065673828125,3669084.249084249,128348644.68864468,96270549.45054944,80.71917,1.0,2.0,1.0,1.0,4.0,20.0,,0 days 00:00:00.001000
2023-11-16 12:20:34.121,0.52060324,1.0568194,0.8287653,0.0,1.1496149,0.6119136,0.4436418,0.0,1.156312,0.4915802,0.49432185,0.0,0.91004086,0.29879785,0.010402622,0.0,0.42653096,0.015614309,-0.17708439,0.0,839.304,811.0989,796.5934,830.84247,863.0769,0.0,0.0,-0.3570556640625,-0.00787353515625,0.917724609375,-0.2093505859375,-9.58526611328125,3.686065673828125,3669084.249084249,128348644.68864468,96270549.45054944,80.71917,1.0,2.0,1.0,1.0,4.0,20.0,,0 days 00:00:00.001000
2023-11-16 12:20:34.122,0.52060324,1.0568194,0.8287653,0.0,1.1496149,0.6119136,0.4436418,0.0,1.156312,0.4915802,0.49432185,0.0,0.91004086,0.29879785,0.010402622,0.0,0.42653096,0.015614309,-0.17708439,0.0,846.9597,819.15753,799.41394,941.6484,720.4396,0.0,0.0,-0.3570556640625,-0.00787353515625,0.917724609375,-0.2093505859375,-9.58526611328125,3.686065673828125,3669084.249084249,128348644.68864468,96270549.45054944,80.71917,1.0,2.0,1.0,1.0,4.0,20.0,,0 days 00:00:00.001000
2023-11-16 12:20:34.122,0.52060324,1.0568194,0.8287653,0.0,1.1496149,0.6119136,0.4436418,0.0,1.156312,0.4915802,0.49432185,0.0,0.91004086,0.29879785,0.010402622,0.0,0.42653096,0.015614309,-0.17708439,0.0,853.4066,817.5458,816.337,1058.4982,777.25275,0.0,0.0,-0.3570556640625,-0.00787353515625,0.917724609375,-0.2093505859375,-9.58526611328125,3.686065673828125,3669084.249084249,128348644.68864468,96270549.45054944,80.71917,1.0,2.0,1.0,1.0,4.0,20.0,,0 days 00:00:00
2023-11-16 12:20:34.122,0.52060324,1.0568194,0.8287653,0.0,1.1496149,0.6119136,0.4436418,0.0,1.156312,0.4915802,0.49432185,0.0,0.91004086,0.29879785,0.010402622,0.0,0.42653096,0.015614309,-0.17708439,0.0,836.4835,808.2784,817.5458,963.4066,934.3956,0.0,0.0,-0.3570556640625,-0.00787353515625,0.917724609375,-0.2093505859375,-9.58526611328125,3.686065673828125,3669084.249084249,128348644.68864468,96270549.45054944,80.71917,1.0,2.0,1.0,1.0,4.0,20.0,,0 days 00:00:00
2023-11-16 12:20:34.123,0.52060324,1.0568194,0.8287653,0.0,1.1496149,0.6119136,0.4436418,0.0,1.156312,0.4915802,0.49432185,0.0,0.91004086,0.29879785,0.010402622,0.0,0.42653096,0.015614309,-0.17708439,0.0,832.4542,829.2308,814.3223,799.41394,787.326,0.0,0.0,-0.3570556640625,-0.00787353515625,0.917724609375,-0.2093505859375,-9.58526611328125,3.686065673828125,3669084.249084249,128348644.68864468,96270549.45054944,80.71917,1.0,2.0,1.0,1.0,4.0,20.0,,0 days 00:00:00.001000
2023-11-16 12:20:34.123,0.52060324,1.0568194,0.8287653,0.0,1.1496149,0.6119136,0.4436418,0.0,1.156312,0.4915802,0.49432185,0.0,0.91004086,0.29879785,0.010402622,0.0,0.42653096,0.015614309,-0.17708439,0.0,840.9158,840.5128,810.696,888.46155,727.6923,0.0,0.0,-0.3570556640625,-0.00787353515625,0.917724609375,-0.2093505859375,-9.58526611328125,3.686065673828125,3669084.249084249,128348644.68864468,96270549.45054944,80.71917,1.0,2.0,1.0,1.0,4.0,20.0,,0 days 00:00:00
2023-11-16 12:20:34.149,0.52060324,1.0568194,0.8287653,0.0,1.1496149,0.6119136,0.4436418,0.0,1.156312,0.4915802,0.49432185,0.0,0.91004086,0.29879785,0.010402622,0.0,0.42653096,0.015614309,-0.17708439,0.0,838.49817,826.0073,800.6227,1078.6447,826.8132,0.0,0.0,-0.3570556640625,-0.00787353515625,0.917724609375,-0.2093505859375,-9.58526611328125,3.686065673828125,3659413.919413919,128393772.89377289,96283443.22344324,81.41035,1.0,2.0,1.0,1.0,4.0,20.0,,0 days 00:00:00.026000
2023-11-16 12:20:34.150,0.52060324,1.0568194,0.8287653,0.0,1.1496149,0.6119136,0.4436418,0.0,1.156312,0.4915802,0.49432185,0.0,0.91004086,0.29879785,0.010402622,0.0,0.42653096,0.015614309,-0.17708439,0.0,829.2308,821.978,796.5934,1006.52014,792.1612,0.0,0.0,-0.3570556640625,-0.00787353515625,0.917724609375,-0.2093505859375,-9.58526611328125,3.686065673828125,3659413.919413919,128393772.89377289,96283443.22344324,81.41035,1.0,2.0,1.0,1.0,4.0,20.0,,0 days 00:00:00.001000
2023-11-16 12:20:34.150,0.52060324,1.0568194,0.8287653,0.0,1.1496149,0.6119136,0.4436418,0.0,1.156312,0.4915802,0.49432185,0.0,0.91004086,0.29879785,0.010402622,0.0,0.42653096,0.015614309,-0.17708439,0.0,810.696,821.978,798.60803,845.34796,776.4469,0.0,0.0,-0.3570556640625,-0.00787353515625,0.917724609375,-0.2093505859375,-9.58526611328125,3.686065673828125,3659413.919413919,128393772.89377289,96283443.22344324,81.41035,1.0,2.0,1.0,1.0,4.0,20.0,,0 days 00:00:00
2023-11-16 12:20:34.150,0.52060324,1.0568194,0.8287653,0.0,1.1496149,0.6119136,0.4436418,0.0,1.156312,0.4915802,0.49432185,0.0,0.91004086,0.29879785,0.010402622,0.0,0.42653096,0.015614309,-0.17708439,0.0,816.337,810.293,792.1612,880.0,771.2088,0.0,0.0,-0.3570556640625,-0.00787353515625,0.917724609375,-0.2093505859375,-9.58526611328125,3.686065673828125,3659413.919413919,128393772.89377289,96283443.22344324,81.41035,1.0,2.0,1.0,1.0,4.0,20.0,,0 days 00:00:00
2023-11-16 12:20:34.151,0.52060324,1.0568194,0.8287653,0.0,1.1496149,0.6119136,0.4436418,0.0,1.156312,0.4915802,0.49432185,0.0,0.91004086,0.29879785,0.010402622,0.0,0.42653096,0.015614309,-0.17708439,0.0,832.0513,799.41394,784.5055,1058.4982,850.18317,0.0,0.0,-0.3570556640625,-0.00787353515625,0.917724609375,-0.2093505859375,-9.58526611328125,3.686065673828125,3659413.919413919,128393772.89377289,96283443.22344324,81.41035,1.0,2.0,1.0,1.0,4.0,20.0,,0 days 00:00:00.001000
2023-11-16 12:20:34.151,0.52060324,1.0568194,0.8287653,0.0,1.1496149,0.6119136,0.4436418,0.0,1.156312,0.4915802,0.49432185,0.0,0.91004086,0.29879785,0.010402622,0.0,0.42653096,0.015614309,-0.17708439,0.0,827.619,804.2491,794.57874,1083.0769,877.98535,0.0,0.0,-0.3570556640625,-0.00787353515625,0.917724609375,-0.2093505859375,-9.58526611328125,3.686065673828125,3659413.919413919,128393772.89377289,96283443.22344324,81.41035,1.0,2.0,1.0,1.0,4.0,20.0,,0 days 00:00:00
2023-11-16 12:20:34.151,0.52060324,1.0568194,0.8287653,0.0,1.1496149,0.6119136,0.4436418,0.0,1.156312,0.4915802,0.49432185,0.0,0.91004086,0.29879785,0.010402622,0.0,0.42653096,0.015614309,-0.17708439,0.0,809.0842,807.0696,794.17584,890.07324,725.6777,0.0,0.0,-0.3570556640625,-0.00787353515625,0.917724609375,-0.2093505859375,-9.58526611328125,3.686065673828125,3659413.919413919,128393772.89377289,96283443.22344324,81.41035,1.0,2.0,1.0,1.0,4.0,20.0,,0 days 00:00:00
2023-11-16 12:20:34.151,0.52060324,1.0568194,0.8287653,0.0,1.1496149,0.6119136,0.4436418,0.0,1.156312,0.4915802,0.49432185,0.0,0.91004086,0.29879785,0.010402622,0.0,0.42653096,0.015614309,-0.17708439,0.0,810.293,810.293,787.72894,859.0476,702.71063,0.0,0.0,-0.3570556640625,-0.00787353515625,0.917724609375,-0.2093505859375,-9.58526611328125,3.686065673828125,3659413.919413919,128393772.89377289,96283443.22344324,81.41035,1.0,2.0,1.0,1.0,4.0,20.0,,0 days 00:00:00
2023-11-16 12:20:34.152,0.52060324,1.0568194,0.8287653,0.0,1.1496149,0.6119136,0.4436418,0.0,1.156312,0.4915802,0.49432185,0.0,0.91004086,0.29879785,0.010402622,0.0,0.42653096,0.015614309,-0.17708439,0.0,819.9634,799.41394,791.3553,1030.2931,869.5238,0.0,0.0,-0.3570556640625,-0.00787353515625,0.917724609375,-0.2093505859375,-9.58526611328125,3.686065673828125,3659413.919413919,128393772.89377289,96283443.22344324,81.41035,1.0,2.0,1.0,1.0,4.0,20.0,,0 days 00:00:00.001000
2023-11-16 12:20:34.152,0.52060324,1.0568194,0.8287653,0.0,1.1496149,0.6119136,0.4436418,0.0,1.156312,0.4915802,0.49432185,0.0,0.91004086,0.29879785,0.010402622,0.0,0.42653096,0.015614309,-0.17708439,0.0,822.381,788.93774,786.52014,1058.0952,999.2674,0.0,0.0,-0.3570556640625,-0.00787353515625,0.917724609375,-0.2093505859375,-9.58526611328125,3.686065673828125,3659413.919413919,128393772.89377289,96283443.22344324,81.41035,1.0,2.0,1.0,1.0,4.0,20.0,,0 days 00:00:00
2023-11-16 12:20:34.152,0.52060324,1.0568194,0.8287653,0.0,1.1496149,0.6119136,0.4436418,0.0,1.156312,0.4915802,0.49432185,0.0,0.91004086,0.29879785,0.010402622,0.0,0.42653096,0.015614309,-0.17708439,0.0,811.9048,807.0696,783.2967,832.4542,740.58606,0.0,0.0,-0.3570556640625,-0.00787353515625,0.917724609375,-0.2093505859375,-9.58526611328125,3.686065673828125,3659413.919413919,128393772.89377289,96283443.22344324,81.41035,1.0,2.0,1.0,1.0,4.0,20.0,,0 days 00:00:00
2023-11-16 12:20:34.153,0.52060324,1.0568194,0.8287653,0.0,1.1496149,0.6119136,0.4436418,0.0,1.156312,0.4915802,0.49432185,0.0,0.91004086,0.29879785,0.010402622,0.0,0.42653096,0.015614309,-0.17708439,0.0,793.36993,809.4872,784.10254,728.0952,673.69965,0.0,0.0,-0.3570556640625,-0.00787353515625,0.917724609375,-0.2093505859375,-9.58526611328125,3.686065673828125,3659413.919413919,128393772.89377289,96283443.22344324,81.41035,1.0,2.0,1.0,1.0,4.0,20.0,,0 days 00:00:00.001000
2023-11-16 12:20:34.217,0.52060324,1.0568194,0.8287653,0.0,1.1496149,0.6119136,0.4436418,0.0,1.156312,0.4915802,0.49432185,0.0,0.91004086,0.29879785,0.010402622,0.0,0.42653096,0.015614309,-0.17708439,0.0,789.34064,803.0403,783.2967,866.7033,755.89746,0.0,0.0,-0.38336181640625,-0.01715087890625,0.95513916015625,1.846771240234375,-4.17205810546875,1.89910888671875,3659413.919413919,128393772.89377289,96283443.22344324,81.41035,1.0,2.0,1.0,1.0,4.0,20.0,,0 days 00:00:00.064000
2023-11-16 12:20:34.218,0.52060324,1.0568194,0.8287653,0.0,1.1496149,0.6119136,0.4436418,0.0,1.156312,0.4915802,0.49432185,0.0,0.91004086,0.29879785,0.010402622,0.0,0.42653096,0.015614309,-0.17708439,0.0,793.7729,798.20514,780.87915,945.2747,674.10254,0.0,0.0,-0.38336181640625,-0.01715087890625,0.95513916015625,1.846771240234375,-4.17205810546875,1.89910888671875,3659413.919413919,128393772.89377289,96283443.22344324,81.41035,1.0,2.0,1.0,1.0,4.0,20.0,,0 days 00:00:00.001000
2023-11-16 12:20:34.218,0.52060324,1.0568194,0.8287653,0.0,1.1496149,0.6119136,0.4436418,0.0,1.156312,0.4915802,0.49432185,0.0,0.91004086,0.29879785,0.010402622,0.0,0.42653096,0.015614309,-0.17708439,0.0,790.14655,794.57874,779.2674,807.0696,689.011,0.0,0.0,-0.38336181640625,-0.01715087890625,0.95513916015625,1.846771240234375,-4.17205810546875,1.89910888671875,3659413.919413919,128393772.89377289,96283443.22344324,81.41035,1.0,2.0,1.0,1.0,4.0,20.0,,0 days 00:00:00
2023-11-16 12:20:34.219,0.52060324,1.0568194,0.8287653,0.0,1.1496149,0.6119136,0.4436418,0.0,1.156312,0.4915802,0.49432185,0.0,0.91004086,0.29879785,0.010402622,0.0,0.42653096,0.015614309,-0.17708439,0.0,786.1172,786.52014,780.4762,649.12085,715.6044,0.0,0.0,-0.38336181640625,-0.01715087890625,0.95513916015625,1.846771240234375,-4.17205810546875,1.89910888671875,3659413.919413919,128393772.89377289,96283443.22344324,81.41035,1.0,2.0,1.0,1.0,4.0,20.0,,0 days 00:00:00.001000
2023-11-16 12:20:34.219,0.52060324,1.0568194,0.8287653,0.0,1.1496149,0.6119136,0.4436418,0.0,1.156312,0.4915802,0.49432185,0.0,0.91004086,0.29879785,0.010402622,0.0,0.42653096,0.015614309,-0.17708439,0.0,775.2381,776.8498,767.98535,721.6484,745.42126,0.0,0.0,-0.38336181640625,-0.01715087890625,0.95513916015625,1.846771240234375,-4.17205810546875,1.89910888671875,3659413.919413919,128393772.89377289,96283443.22344324,81.41035,1.0,2.0,1.0,1.0,4.0,20.0,,0 days 00:00:00
2023-11-16 12:20:34.219,0.52060324,1.0568194,0.8287653,0.0,1.1496149,0.6119136,0.4436418,0.0,1.156312,0.4915802,0.49432185,0.0,0.91004086,0.29879785,0.010402622,0.0,0.42653096,0.015614309,-0.17708439,0.0,767.98535,771.2088,759.92676,876.77655,791.75824,0.0,0.0,-0.38336181640625,-0.01715087890625,0.95513916015625,1.846771240234375,-4.17205810546875,1.89910888671875,3659413.919413919,128393772.89377289,96283443.22344324,81.41035,1.0,2.0,1.0,1.0,4.0,20.0,,0 days 00:00:00
2023-11-16 12:20:34.220,0.52060324,1.0568194,0.8287653,0.0,1.1496149,0.6119136,0.4436418,0.0,1.156312,0.4915802,0.49432185,0.0,0.91004086,0.29879785,0.010402622,0.0,0.42653096,0.015614309,-0.17708439,0.0,762.3443,769.19415,759.5238,807.47253,807.8755,0.0,0.0,-0.38336181640625,-0.01715087890625,0.95513916015625,1.846771240234375,-4.17205810546875,1.89910888671875,3659413.919413919,128393772.89377289,96283443.22344324,81.41035,1.0,2.0,1.0,1.0,4.0,20.0,,0 days 00:00:00.001000
2023-11-16 12:20:34.221,0.52060324,1.0568194,0.8287653,0.0,1.1496149,0.6119136,0.4436418,0.0,1.156312,0.4915802,0.49432185,0.0,0.91004086,0.29879785,0.010402622,0.0,0.42653096,0.015614309,-0.17708439,0.0,762.3443,769.19415,759.5238,807.47253,807.8755,0.0,0.0,-0.38336181640625,-0.01715087890625,0.95513916015625,1.846771240234375,-4.17205810546875,1.89910888671875,3659413.919413919,128393772.89377289,96283443.22344324,81.41035,1.0,2.0,1.0,1.0,4.0,20.0,/muse/elements/blink,0 days 00:00:00.001000
2023-11-16 12:20:34.220,0.52060324,1.0568194,0.8287653,0.0,1.1496149,0.6119136,0.4436418,0.0,1.156312,0.4915802,0.49432185,0.0,0.91004086,0.29879785,0.010402622,0.0,0.42653096,0.015614309,-0.17708439,0.0,749.45056,764.7619,749.85345,653.95605,816.337,0.0,0.0,-0.38336181640625,-0.01715087890625,0.95513916015625,1.846771240234375,-4.17205810546875,1.89910888671875,3659413.919413919,128393772.89377289,96283443.22344324,81.41035,1.0,2.0,1.0,1.0,4.0,20.0,/muse/elements/blink,-1 days +23:59:59.999000
2023-11-16 12:20:34.222,0.52060324,1.0568194,0.8287653,0.0,1.1496149,0.6119136,0.4436418,0.0,1.156312,0.4915802,0.49432185,0.0,0.91004086,0.29879785,0.010402622,0.0,0.42653096,0.015614309,-0.17708439,0.0,759.12085,755.89746,742.6007,704.7253,997.25275,0.0,0.0,-0.38336181640625,-0.01715087890625,0.95513916015625,1.846771240234375,-4.17205810546875,1.89910888671875,3659413.919413919,128393772.89377289,96283443.22344324,81.41035,1.0,2.0,1.0,1.0,4.0,20.0,/muse/elements/blink,0 days 00:00:00.002000
2023-11-16 12:20:34.222,0.52060324,1.0568194,0.8287653,0.0,1.1496149,0.6119136,0.4436418,0.0,1.156312,0.4915802,0.49432185,0.0,0.91004086,0.29879785,0.010402622,0.0,0.42653096,0.015614309,-0.17708439,0.0,760.32965,758.71796,745.42126,837.6923,881.2088,0.0,0.0,-0.38336181640625,-0.01715087890625,0.95513916015625,1.846771240234375,-4.17205810546875,1.89910888671875,3659413.919413919,128393772.89377289,96283443.22344324,81.41035,1.0,2.0,1.0,1.0,4.0,20.0,/muse/elements/blink,0 days 00:00:00
2023-11-16 12:20:34.223,0.52060324,1.0568194,0.8287653,0.0,1.1496149,0.6119136,0.4436418,0.0,1.156312,0.4915802,0.49432185,0.0,0.91004086,0.29879785,0.010402622,0.0,0.42653096,0.015614309,-0.17708439,0.0,754.68866,758.315,747.8388,806.26373,608.4249,0.0,0.0,-0.38336181640625,-0.01715087890625,0.95513916015625,1.846771240234375,-4.17205810546875,1.89910888671875,3659413.919413919,128393772.89377289,96283443.22344324,81.41035,1.0,2.0,1.0,1.0,4.0,20.0,/muse/elements/blink,0 days 00:00:00.001000
2023-11-16 12:20:34.223,0.52060324,1.0568194,0.8287653,0.0,1.1496149,0.6119136,0.4436418,0.0,1.156312,0.4915802,0.49432185,0.0,0.91004086,0.29879785,0.010402622,0.0,0.42653096,0.015614309,-0.17708439,0.0,763.95605,765.16486,747.8388,667.6557,708.3516,0.0,0.0,-0.38336181640625,-0.01715087890625,0.95513916015625,1.846771240234375,-4.17205810546875,1.89910888671875,3659413.919413919,128393772.89377289,96283443.22344324,81.41035,1.0,2.0,1.0,1.0,4.0,20.0,/muse/elements/blink,0 days 00:00:00
2023-11-16 12:20:34.248,0.52060324,1.0568194,0.8287653,0.0,1.1496149,0.6119136,0.4436418,0.0,1.156312,0.4915802,0.49432185,0.0,0.91004086,0.29879785,0.010402622,0.0,0.42653096,0.015614309,-0.17708439,0.0,762.3443,770.40295,750.2564,652.74725,740.18317,0.0,0.0,-0.36004638671875,-0.0118408203125,0.9503173828125,1.921539306640625,-6.878662109375,-1.7047119140625,3655384.615384615,128442124.54212454,96298754.57875456,82.06108,1.0,2.0,1.0,1.0,4.0,20.0,/muse/elements/blink,0 days 00:00:00.025000
2023-11-16 12:20:34.248,0.52060324,1.0568194,0.8287653,0.0,1.1496149,0.6119136,0.4436418,0.0,1.156312,0.4915802,0.49432185,0.0,0.91004086,0.29879785,0.010402622,0.0,0.42653096,0.015614309,-0.17708439,0.0,759.12085,763.95605,754.2857,819.9634,690.6227,0.0,0.0,-0.36004638671875,-0.0118408203125,0.9503173828125,1.921539306640625,-6.878662109375,-1.7047119140625,3655384.615384615,128442124.54212454,96298754.57875456,82.06108,1.0,2.0,1.0,1.0,4.0,20.0,/muse/elements/blink,0 days 00:00:00
2023-11-16 12:20:34.249,0.52060324,1.0568194,0.8287653,0.0,1.1496149,0.6119136,0.4436418,0.0,1.156312,0.4915802,0.49432185,0.0,0.91004086,0.29879785,0.010402622,0.0,0.42653096,0.015614309,-0.17708439,0.0,767.1795,765.9707,750.2564,884.0293,700.696,0.0,0.0,-0.36004638671875,-0.0118408203125,0.9503173828125,1.921539306640625,-6.878662109375,-1.7047119140625,3655384.615384615,128442124.54212454,96298754.57875456,82.06108,1.0,2.0,1.0,1.0,4.0,20.0,/muse/elements/blink,0 days 00:00:00.001000
2023-11-16 12:20:34.249,0.52060324,1.0568194,0.8287653,0.0,1.1496149,0.6119136,0.4436418,0.0,1.156312,0.4915802,0.49432185,0.0,0.91004086,0.29879785,0.010402622,0.0,0.42653096,0.015614309,-0.17708439,0.0,761.9414,768.7912,753.8828,736.55676,699.89014,0.0,0.0,-0.36004638671875,-0.0118408203125,0.9503173828125,1.921539306640625,-6.878662109375,-1.7047119140625,3655384.615384615,128442124.54212454,96298754.57875456,82.06108,1.0,2.0,1.0,1.0,4.0,20.0,/muse/elements/blink,0 days 00:00:00
2023-11-16 12:20:34.249,0.52060324,1.0568194,0.8287653,0.0,1.1496149,0.6119136,0.4436418,0.0,1.156312,0.4915802,0.49432185,0.0,0.91004086,0.29879785,0.010402622,0.0,0.42653096,0.015614309,-0.17708439,0.0,754.68866,768.3883,760.7326,659.19415,772.4176,0.0,0.0,-0.36004638671875,-0.0118408203125,0.9503173828125,1.921539306640625,-6.878662109375,-1.7047119140625,3655384.615384615,128442124.54212454,96298754.57875456,82.06108,1.0,2.0,1.0,1.0,4.0,20.0,/muse/elements/blink,0 days 00:00:00
2023-11-16 12:20:34.249,0.52060324,1.0568194,0.8287653,0.0,1.1496149,0.6119136,0.4436418,0.0,1.156312,0.4915802,0.49432185,0.0,0.91004086,0.29879785,0.010402622,0.0,0.42653096,0.015614309,-0.17708439,0.0,770.0,764.35895,756.7033,822.7839,845.34796,0.0,0.0,-0.36004638671875,-0.0118408203125,0.9503173828125,1.921539306640625,-6.878662109375,-1.7047119140625,3655384.615384615,128442124.54212454,96298754.57875456,82.06108,1.0,2.0,1.0,1.0,4.0,20.0,/muse/elements/blink,0 days 00:00:00
2023-11-16 12:20:34.250,0.52060324,1.0568194,0.8287653,0.0,1.1496149,0.6119136,0.4436418,0.0,1.156312,0.4915802,0.49432185,0.0,0.91004086,0.29879785,0.010402622,0.0,0.42653096,0.015614309,-0.17708439,0.0,763.5531,767.5824,755.4945,957.3626,795.38464,0.0,0.0,-0.36004638671875,-0.0118408203125,0.9503173828125,1.921539306640625,-6.878662109375,-1.7047119140625,3655384.615384615,128442124.54212454,96298754.57875456,82.06108,1.0,2.0,1.0,1.0,4.0,20.0,/muse/elements/blink,0 days 00:00:00.001000
2023-11-16 12:20:34.250,0.52060324,1.0568194,0.8287653,0.0,1.1496149,0.6119136,0.4436418,0.0,1.156312,0.4915802,0.49432185,0.0,0.91004086,0.29879785,0.010402622,0.0,0.42653096,0.015614309,-0.17708439,0.0,765.56775,769.19415,759.12085,882.8205,945.2747,0.0,0.0,-0.36004638671875,-0.0118408203125,0.9503173828125,1.921539306640625,-6.878662109375,-1.7047119140625,3655384.615384615,128442124.54212454,96298754.57875456,82.06108,1.0,2.0,1.0,1.0,4.0,20.0,/muse/elements/blink,0 days 00:00:00
2023-11-16 12:20:34.250,0.52060324,1.0568194,0.8287653,0.0,1.1496149,0.6119136,0.4436418,0.0,1.156312,0.4915802,0.49432185,0.0,0.91004086,0.29879785,0.010402622,0.0,0.42653096,0.015614309,-0.17708439,0.0,772.01465,761.9414,757.1062,748.24176,1037.5458,0.0,0.0,-0.36004638671875,-0.0118408203125,0.9503173828125,1.921539306640625,-6.878662109375,-1.7047119140625,3655384.615384615,128442124.54212454,96298754.57875456,82.06108,1.0,2.0,1.0,1.0,4.0,20.0,/muse/elements/blink,0 days 00:00:00
2023-11-16 12:20:34.251,0.52060324,1.0568194,0.8287653,0.0,1.1496149,0.6119136,0.4436418,0.0,1.156312,0.4915802,0.49432185,0.0,0.91004086,0.29879785,0.010402622,0.0,0.42653096,0.015614309,-0.17708439,0.0,770.80585,774.43225,754.2857,792.5641,808.2784,0.0,0.0,-0.36004638671875,-0.0118408203125,0.9503173828125,1.921539306640625,-6.878662109375,-1.7047119140625,3655384.615384615,128442124.54212454,96298754.57875456,82.06108,1.0,2.0,1.0,1.0,4.0,20.0,/muse/elements/blink,0 days 00:00:00.001000
2023-11-16 12:20:34.251,0.52060324,1.0568194,0.8287653,0.0,1.1496149,0.6119136,0.4436418,0.0,1.156312,0.4915802,0.49432185,0.0,0.91004086,0.29879785,0.010402622,0.0,0.42653096,0.015614309,-0.17708439,0.0,773.6264,777.25275,757.1062,967.8388,686.99634,0.0,0.0,-0.36004638671875,-0.0118408203125,0.9503173828125,1.921539306640625,-6.878662109375,-1.7047119140625,3655384.615384615,128442124.54212454,96298754.57875456,82.06108,1.0,2.0,1.0,1.0,4.0,20.0,/muse/elements/blink,0 days 00:00:00
2023-11-16 12:20:34.251,0.52060324,1.0568194,0.8287653,0.0,1.1496149,0.6119136,0.4436418,0.0,1.156312,0.4915802,0.49432185,0.0,0.91004086,0.29879785,0.010402622,0.0,0.42653096,0.015614309,-0.17708439,0.0,779.67035,768.7912,763.5531,954.5421,747.03296,0.0,0.0,-0.36004638671875,-0.0118408203125,0.9503173828125,1.921539306640625,-6.878662109375,-1.7047119140625,3655384.615384615,128442124.54212454,96298754.57875456,82.06108,1.0,2.0,1.0,1.0,4.0,20.0,/muse/elements/blink,0 days 00:00:00
2023-11-16 12:20:34.315,0.52060324,1.0568194,0.8287653,0.0,1.1496149,0.6119136,0.4436418,0.0,1.156312,0.4915802,0.49432185,0.0,0.91004086,0.29879785,0.010402622,0.0,0.42653096,0.015614309,-0.17708439,0.0,765.56775,775.2381,766.3736,796.1905,715.6044,0.0,0.0,-0.342041015625,-0.017822265625,0.94976806640625,2.220611572265625,-11.476898193359377,0.46356201171875,3655384.615384615,128442124.54212454,96298754.57875456,82.06108,1.0,2.0,1.0,1.0,4.0,20.0,/muse/elements/blink,0 days 00:00:00.064000
2023-11-16 12:20:34.316,0.52060324,1.0568194,0.8287653,0.0,1.1496149,0.6119136,0.4436418,0.0,1.156312,0.4915802,0.49432185,0.0,0.91004086,0.29879785,0.010402622,0.0,0.42653096,0.015614309,-0.17708439,0.0,767.98535,784.10254,771.6117,809.89014,658.7912,0.0,0.0,-0.342041015625,-0.017822265625,0.94976806640625,2.220611572265625,-11.476898193359377,0.46356201171875,3655384.615384615,128442124.54212454,96298754.57875456,82.06108,1.0,2.0,1.0,1.0,4.0,20.0,/muse/elements/blink,0 days 00:00:00.001000
2023-11-16 12:20:34.316,0.52060324,1.0568194,0.8287653,0.0,1.1496149,0.6119136,0.4436418,0.0,1.156312,0.4915802,0.49432185,0.0,0.91004086,0.29879785,0.010402622,0.0,0.42653096,0.015614309,-0.17708439,0.0,779.67035,772.8205,766.77655,1013.36993,697.47253,0.0,0.0,-0.342041015625,-0.017822265625,0.94976806640625,2.220611572265625,-11.476898193359377,0.46356201171875,3655384.615384615,128442124.54212454,96298754.57875456,82.06108,1.0,2.0,1.0,1.0,4.0,20.0,/muse/elements/blink,0 days 00:00:00
2023-11-16 12:20:34.317,0.52060324,1.0568194,0.8287653,0.0,1.1496149,0.6119136,0.4436418,0.0,1.156312,0.4915802,0.49432185,0.0,0.91004086,0.29879785,0.010402622,0.0,0.42653096,0.015614309,-0.17708439,0.0,766.3736,757.50916,758.315,1038.7546,736.55676,0.0,0.0,-0.342041015625,-0.017822265625,0.94976806640625,2.220611572265625,-11.476898193359377,0.46356201171875,3655384.615384615,128442124.54212454,96298754.57875456,82.06108,1.0,2.0,1.0,1.0,4.0,20.0,/muse/elements/blink,0 days 00:00:00.001000
2023-11-16 12:20:34.317,0.52060324,1.0568194,0.8287653,0.0,1.1496149,0.6119136,0.4436418,0.0,1.156312,0.4915802,0.49432185,0.0,0.91004086,0.29879785,0.010402622,0.0,0.42653096,0.015614309,-0.17708439,0.0,763.95605,764.7619,770.40295,855.0183,734.94507,0.0,0.0,-0.342041015625,-0.017822265625,0.94976806640625,2.220611572265625,-11.476898193359377,0.46356201171875,3655384.615384615,128442124.54212454,96298754.57875456,82.06108,1.0,2.0,1.0,1.0,4.0,20.0,/muse/elements/blink,0 days 00:00:00
2023-11-16 12:20:34.318,0.52060324,1.0568194,0.8287653,0.0,1.1496149,0.6119136,0.4436418,0.0,1.156312,0.4915802,0.49432185,0.0,0.91004086,0.29879785,0.010402622,0.0,0.42653096,0.015614309,-0.17708439,0.0,776.04395,773.22345,779.67035,818.3516,756.7033,0.0,0.0,-0.342041015625,-0.017822265625,0.94976806640625,2.220611572265625,-11.476898193359377,0.46356201171875,3655384.615384615,128442124.54212454,96298754.57875456,82.06108,1.0,2.0,1.0,1.0,4.0,20.0,/muse/elements/blink,0 days 00:00:00.001000
2023-11-16 12:20:34.318,0.52060324,1.0568194,0.8287653,0.0,1.1496149,0.6119136,0.4436418,0.0,1.156312,0.4915802,0.49432185,0.0,0.91004086,0.29879785,0.010402622,0.0,0.42653096,0.015614309,-0.17708439,0.0,784.10254,768.7912,779.2674,989.59705,857.03296,0.0,0.0,-0.342041015625,-0.017822265625,0.94976806640625,2.220611572265625,-11.476898193359377,0.46356201171875,3655384.615384615,128442124.54212454,96298754.57875456,82.06108,1.0,2.0,1.0,1.0,4.0,20.0,/muse/elements/blink,0 days 00:00:00
2023-11-16 12:20:34.319,0.52060324,1.0568194,0.8287653,0.0,1.1496149,0.6119136,0.4436418,0.0,1.156312,0.4915802,0.49432185,0.0,0.91004086,0.29879785,0.010402622,0.0,0.42653096,0.015614309,-0.17708439,0.0,791.3553,767.98535,779.2674,1040.3663,866.30035,0.0,0.0,-0.342041015625,-0.017822265625,0.94976806640625,2.220611572265625,-11.476898193359377,0.46356201171875,3655384.615384615,128442124.54212454,96298754.57875456,82.06108,1.0,2.0,1.0,1.0,4.0,20.0,/muse/elements/blink,0 days 00:00:00.001000
2023-11-16 12:20:34.319,0.52060324,1.0568194,0.8287653,0.0,1.1496149,0.6119136,0.4436418,0.0,1.156312,0.4915802,0.49432185,0.0,0.91004086,0.29879785,0.010402622,0.0,0.42653096,0.015614309,-0.17708439,0.0,784.10254,779.67035,782.8938,863.47986,762.3443,0.0,0.0,-0.342041015625,-0.017822265625,0.94976806640625,2.220611572265625,-11.476898193359377,0.46356201171875,3655384.615384615,128442124.54212454,96298754.57875456,82.06108,1.0,2.0,1.0,1.0,4.0,20.0,/muse/elements/blink,0 days 00:00:00
2023-11-16 12:20:34.320,0.52060324,1.0568194,0.8287653,0.0,1.1496149,0.6119136,0.4436418,0.0,1.156312,0.4915802,0.49432185,0.0,0.91004086,0.29879785,0.010402622,0.0,0.42653096,0.015614309,-0.17708439,0.0,764.7619,785.31134,786.1172,716.4103,691.8315,0.0,0.0,-0.342041015625,-0.017822265625,0.94976806640625,2.220611572265625,-11.476898193359377,0.46356201171875,3655384.615384615,128442124.54212454,96298754.57875456,82.06108,1.0,2.0,1.0,1.0,4.0,20.0,/muse/elements/blink,0 days 00:00:00.001000
2023-11-16 12:20:34.322,0.52060324,1.0568194,0.8287653,0.0,1.1496149,0.6119136,0.4436418,0.0,1.156312,0.4915802,0.49432185,0.0,0.91004086,0.29879785,0.010402622,0.0,0.42653096,0.015614309,-0.17708439,0.0,785.31134,791.3553,793.36993,849.7802,802.23444,0.0,0.0,-0.342041015625,-0.017822265625,0.94976806640625,2.220611572265625,-11.476898193359377,0.46356201171875,3655384.615384615,128442124.54212454,96298754.57875456,82.06108,1.0,2.0,1.0,1.0,4.0,20.0,/muse/elements/blink,0 days 00:00:00.002000
2023-11-16 12:20:34.322,0.52060324,1.0568194,0.8287653,0.0,1.1496149,0.6119136,0.4436418,0.0,1.156312,0.4915802,0.49432185,0.0,0.91004086,0.29879785,0.010402622,0.0,0.42653096,0.015614309,-0.17708439,0.0,818.7546,797.3993,802.6374,1021.4286,1025.4579,0.0,0.0,-0.342041015625,-0.017822265625,0.94976806640625,2.220611572265625,-11.476898193359377,0.46356201171875,3655384.615384615,128442124.54212454,96298754.57875456,82.06108,1.0,2.0,1.0,1.0,4.0,20.0,/muse/elements/blink,0 days 00:00:00
2023-11-16 12:20:34.363,0.52060324,1.0568194,0.8287653,0.0,1.1496149,0.6119136,0.4436418,0.0,1.156312,0.4915802,0.49432185,0.0,0.91004086,0.29879785,0.010402622,0.0,0.42653096,0.015614309,-0.17708439,0.0,799.81683,807.47253,802.6374,893.69965,917.0696,0.0,0.0,-0.347900390625,-0.02203369140625,0.93841552734375,1.188812255859375,-9.5404052734375,1.06170654296875,3661831.5018315017,128425201.46520148,96352747.25274724,82.67372,1.0,2.0,1.0,1.0,4.0,20.0,/muse/elements/blink,0 days 00:00:00.041000
2023-11-16 12:20:34.363,0.52060324,1.0568194,0.8287653,0.0,1.1496149,0.6119136,0.4436418,0.0,1.156312,0.4915802,0.49432185,0.0,0.91004086,0.29879785,0.010402622,0.0,0.42653096,0.015614309,-0.17708439,0.0,773.6264,811.9048,804.2491,706.337,805.8608,0.0,0.0,-0.347900390625,-0.02203369140625,0.93841552734375,1.188812255859375,-9.5404052734375,1.06170654296875,3661831.5018315017,128425201.46520148,96352747.25274724,82.67372,1.0,2.0,1.0,1.0,4.0,20.0,/muse/elements/blink,0 days 00:00:00
2023-11-16 12:20:34.363,0.52060324,1.0568194,0.8287653,0.0,1.1496149,0.6119136,0.4436418,0.0,1.156312,0.4915802,0.49432185,0.0,0.91004086,0.29879785,0.010402622,0.0,0.42653096,0.015614309,-0.17708439,0.0,795.38464,807.0696,805.8608,763.95605,923.5165,0.0,0.0,-0.347900390625,-0.02203369140625,0.93841552734375,1.188812255859375,-9.5404052734375,1.06170654296875,3661831.5018315017,128425201.46520148,96352747.25274724,82.67372,1.0,2.0,1.0,1.0,4.0,20.0,/muse/elements/blink,0 days 00:00:00
2023-11-16 12:20:34.364,0.52060324,1.0568194,0.8287653,0.0,1.1496149,0.6119136,0.4436418,0.0,1.156312,0.4915802,0.49432185,0.0,0.91004086,0.29879785,0.010402622,0.0,0.42653096,0.015614309,-0.17708439,0.0,815.9341,817.5458,814.7253,925.5311,850.989,0.0,0.0,-0.347900390625,-0.02203369140625,0.93841552734375,1.188812255859375,-9.5404052734375,1.06170654296875,3661831.5018315017,128425201.46520148,96352747.25274724,82.67372,1.0,2.0,1.0,1.0,4.0,20.0,/muse/elements/blink,0 days 00:00:00.001000
2023-11-16 12:20:34.364,0.52060324,1.0568194,0.8287653,0.0,1.1496149,0.6119136,0.4436418,0.0,1.156312,0.4915802,0.49432185,0.0,0.91004086,0.29879785,0.010402622,0.0,0.42653096,0.015614309,-0.17708439,0.0,805.05493,827.619,818.3516,884.0293,722.8571,0.0,0.0,-0.347900390625,-0.02203369140625,0.93841552734375,1.188812255859375,-9.5404052734375,1.06170654296875,3661831.5018315017,128425201.46520148,96352747.25274724,82.67372,1.0,2.0,1.0,1.0,4.0,20.0,/muse/elements/blink,0 days 00:00:00
2023-11-16 12:20:34.364,0.52060324,1.0568194,0.8287653,0.0,1.1496149,0.6119136,0.4436418,0.0,1.156312,0.4915802,0.49432185,0.0,0.91004086,0.29879785,0.010402622,0.0,0.42653096,0.015614309,-0.17708439,0.0,797.3993,817.9487,810.696,707.1429,713.5897,0.0,0.0,-0.347900390625,-0.02203369140625,0.93841552734375,1.188812255859375,-9.5404052734375,1.06170654296875,3661831.5018315017,128425201.46520148,96352747.25274724,82.67372,1.0,2.0,1.0,1.0,4.0,20.0,/muse/elements/blink,0 days 00:00:00
2023-11-16 12:20:34.365,0.52060324,1.0568194,0.8287653,0.0,1.1496149,0.6119136,0.4436418,0.0,1.156312,0.4915802,0.49432185,0.0,0.91004086,0.29879785,0.010402622,0.0,0.42653096,0.015614309,-0.17708439,0.0,802.6374,808.2784,810.696,735.34796,1002.0879,0.0,0.0,-0.347900390625,-0.02203369140625,0.93841552734375,1.188812255859375,-9.5404052734375,1.06170654296875,3661831.5018315017,128425201.46520148,96352747.25274724,82.67372,1.0,2.0,1.0,1.0,4.0,20.0,/muse/elements/blink,0 days 00:00:00.001000
2023-11-16 12:20:34.365,0.52060324,1.0568194,0.8287653,0.0,1.1496149,0.6119136,0.4436418,0.0,1.156312,0.4915802,0.49432185,0.0,0.91004086,0.29879785,0.010402622,0.0,0.42653096,0.015614309,-0.17708439,0.0,808.68134,808.68134,811.50183,918.68134,1151.1721,0.0,0.0,-0.347900390625,-0.02203369140625,0.93841552734375,1.188812255859375,-9.5404052734375,1.06170654296875,3661831.5018315017,128425201.46520148,96352747.25274724,82.67372,1.0,2.0,1.0,1.0,4.0,20.0,/muse/elements/blink,0 days 00:00:00
2023-11-16 12:20:34.365,0.52060324,1.0568194,0.8287653,0.0,1.1496149,0.6119136,0.4436418,0.0,1.156312,0.4915802,0.49432185,0.0,0.91004086,0.29879785,0.010402622,0.0,0.42653096,0.015614309,-0.17708439,0.0,815.9341,827.2161,814.7253,913.44324,844.5421,0.0,0.0,-0.347900390625,-0.02203369140625,0.93841552734375,1.188812255859375,-9.5404052734375,1.06170654296875,3661831.5018315017,128425201.46520148,96352747.25274724,82.67372,1.0,2.0,1.0,1.0,4.0,20.0,/muse/elements/blink,0 days 00:00:00
2023-11-16 12:20:34.366,0.52060324,1.0568194,0.8287653,0.0,1.1496149,0.6119136,0.4436418,0.0,1.156312,0.4915802,0.49432185,0.0,0.91004086,0.29879785,0.010402622,0.0,0.42653096,0.015614309,-0.17708439,0.0,814.3223,830.0366,829.2308,757.9121,744.21246,0.0,0.0,-0.347900390625,-0.02203369140625,0.93841552734375,1.188812255859375,-9.5404052734375,1.06170654296875,3661831.5018315017,128425201.46520148,96352747.25274724,82.67372,1.0,2.0,1.0,1.0,4.0,20.0,/muse/elements/blink,0 days 00:00:00.001000
2023-11-16 12:20:34.366,0.52060324,1.0568194,0.8287653,0.0,1.1496149,0.6119136,0.4436418,0.0,1.156312,0.4915802,0.49432185,0.0,0.91004086,0.29879785,0.010402622,0.0,0.42653096,0.015614309,-0.17708439,0.0,819.15753,819.9634,823.9927,714.7985,858.24176,0.0,0.0,-0.347900390625,-0.02203369140625,0.93841552734375,1.188812255859375,-9.5404052734375,1.06170654296875,3661831.5018315017,128425201.46520148,96352747.25274724,82.67372,1.0,2.0,1.0,1.0,4.0,20.0,/muse/elements/blink,0 days 00:00:00
2023-11-16 12:20:34.366,0.52060324,1.0568194,0.8287653,0.0,1.1496149,0.6119136,0.4436418,0.0,1.156312,0.4915802,0.49432185,0.0,0.91004086,0.29879785,0.010402622,0.0,0.42653096,0.015614309,-0.17708439,0.0,815.9341,820.3663,821.5751,857.03296,857.03296,0.0,0.0,-0.347900390625,-0.02203369140625,0.93841552734375,1.188812255859375,-9.5404052734375,1.06170654296875,3661831.5018315017,128425201.46520148,96352747.25274724,82.67372,1.0,2.0,1.0,1.0,4.0,20.0,/muse/elements/blink,0 days 00:00:00
2023-11-16 12:20:34.399,0.52060324,1.0568194,0.8287653,0.0,1.1496149,0.6119136,0.4436418,0.0,1.156312,0.4915802,0.49432185,0.0,0.91004086,0.29879785,0.010402622,0.0,0.42653096,0.015614309,-0.17708439,0.0,809.89014,823.5897,825.6044,953.73627,755.09155,0.0,0.0,-0.347900390625,-0.02203369140625,0.93841552734375,1.188812255859375,-9.5404052734375,1.06170654296875,3661831.5018315017,128425201.46520148,96352747.25274724,82.67372,1.0,2.0,1.0,1.0,4.0,20.0,/muse/elements/blink,0 days 00:00:00.033000
2023-11-16 12:20:34.400,0.52060324,1.0568194,0.8287653,0.0,1.1496149,0.6119136,0.4436418,0.0,1.156312,0.4915802,0.49432185,0.0,0.91004086,0.29879785,0.010402622,0.0,0.42653096,0.015614309,-0.17708439,0.0,811.9048,823.5897,821.978,840.9158,781.28204,0.0,0.0,-0.347900390625,-0.02203369140625,0.93841552734375,1.188812255859375,-9.5404052734375,1.06170654296875,3661831.5018315017,128425201.46520148,96352747.25274724,82.67372,1.0,2.0,1.0,1.0,4.0,20.0,/muse/elements/blink,0 days 00:00:00.001000
2023-11-16 12:20:34.400,0.52060324,1.0568194,0.8287653,0.0,1.1496149,0.6119136,0.4436418,0.0,1.156312,0.4915802,0.49432185,0.0,0.91004086,0.29879785,0.010402622,0.0,0.42653096,0.015614309,-0.17708439,0.0,821.5751,821.5751,821.5751,723.663,797.3993,0.0,0.0,-0.347900390625,-0.02203369140625,0.93841552734375,1.188812255859375,-9.5404052734375,1.06170654296875,3661831.5018315017,128425201.46520148,96352747.25274724,82.67372,1.0,2.0,1.0,1.0,4.0,20.0,/muse/elements/blink,0 days 00:00:00
2023-11-16 12:20:34.401,0.52060324,1.0568194,0.8287653,0.0,1.1496149,0.6119136,0.4436418,0.0,1.156312,0.4915802,0.49432185,0.0,0.91004086,0.29879785,0.010402622,0.0,0.42653096,0.015614309,-0.17708439,0.0,808.68134,824.7985,817.9487,823.9927,814.7253,0.0,0.0,-0.347900390625,-0.02203369140625,0.93841552734375,1.188812255859375,-9.5404052734375,1.06170654296875,3661831.5018315017,128425201.46520148,96352747.25274724,82.67372,1.0,2.0,1.0,1.0,4.0,20.0,/muse/elements/blink,0 days 00:00:00.001000
2023-11-16 12:20:34.401,0.52060324,1.0568194,0.8287653,0.0,1.1496149,0.6119136,0.4436418,0.0,1.156312,0.4915802,0.49432185,0.0,0.91004086,0.29879785,0.010402622,0.0,0.42653096,0.015614309,-0.17708439,0.0,799.81683,835.2747,822.7839,959.7802,761.53845,0.0,0.0,-0.347900390625,-0.02203369140625,0.93841552734375,1.188812255859375,-9.5404052734375,1.06170654296875,3661831.5018315017,128425201.46520148,96352747.25274724,82.67372,1.0,2.0,1.0,1.0,4.0,20.0,/muse/elements/blink,0 days 00:00:00
2023-11-16 12:20:34.402,0.52060324,1.0568194,0.8287653,0.0,1.1496149,0.6119136,0.4436418,0.0,1.156312,0.4915802,0.49432185,0.0,0.91004086,0.29879785,0.010402622,0.0,0.42653096,0.015614309,-0.17708439,0.0,821.1722,833.2601,825.6044,888.0586,798.20514,0.0,0.0,-0.347900390625,-0.02203369140625,0.93841552734375,1.188812255859375,-9.5404052734375,1.06170654296875,3661831.5018315017,128425201.46520148,96352747.25274724,82.67372,1.0,2.0,1.0,1.0,4.0,20.0,/muse/elements/blink,0 days 00:00:00.001000
2023-11-16 12:20:34.402,0.52060324,1.0568194,0.8287653,0.0,1.1496149,0.6119136,0.4436418,0.0,1.156312,0.4915802,0.49432185,0.0,0.91004086,0.29879785,0.010402622,0.0,0.42653096,0.015614309,-0.17708439,0.0,821.5751,815.5311,822.7839,771.6117,1130.2197,0.0,0.0,-0.347900390625,-0.02203369140625,0.93841552734375,1.188812255859375,-9.5404052734375,1.06170654296875,3661831.5018315017,128425201.46520148,96352747.25274724,82.67372,1.0,2.0,1.0,1.0,4.0,20.0,/muse/elements/blink,0 days 00:00:00
2023-11-16 12:20:34.403,0.52060324,1.0568194,0.8287653,0.0,1.1496149,0.6119136,0.4436418,0.0,1.156312,0.4915802,0.49432185,0.0,0.91004086,0.29879785,0.010402622,0.0,0.42653096,0.015614309,-0.17708439,0.0,799.81683,821.978,824.3956,774.0293,1122.967,0.0,0.0,-0.347900390625,-0.02203369140625,0.93841552734375,1.188812255859375,-9.5404052734375,1.06170654296875,3661831.5018315017,128425201.46520148,96352747.25274724,82.67372,1.0,2.0,1.0,1.0,4.0,20.0,/muse/elements/blink,0 days 00:00:00.001000
2023-11-16 12:20:34.403,0.52060324,1.0568194,0.8287653,0.0,1.1496149,0.6119136,0.4436418,0.0,1.156312,0.4915802,0.49432185,0.0,0.91004086,0.29879785,0.010402622,0.0,0.42653096,0.015614309,-0.17708439,0.0,806.6667,836.4835,824.3956,882.8205,808.68134,0.0,0.0,-0.347900390625,-0.02203369140625,0.93841552734375,1.188812255859375,-9.5404052734375,1.06170654296875,3661831.5018315017,128425201.46520148,96352747.25274724,82.67372,1.0,2.0,1.0,1.0,4.0,20.0,/muse/elements/blink,0 days 00:00:00
2023-11-16 12:20:34.403,0.52060324,1.0568194,0.8287653,0.0,1.1496149,0.6119136,0.4436418,0.0,1.156312,0.4915802,0.49432185,0.0,0.91004086,0.29879785,0.010402622,0.0,0.42653096,0.015614309,-0.17708439,0.0,813.5165,828.8278,819.9634,895.31134,759.5238,0.0,0.0,-0.347900390625,-0.02203369140625,0.93841552734375,1.188812255859375,-9.5404052734375,1.06170654296875,3661831.5018315017,128425201.46520148,96352747.25274724,82.67372,1.0,2.0,1.0,1.0,4.0,20.0,/muse/elements/blink,0 days 00:00:00
2023-11-16 12:20:34.404,0.52060324,1.0568194,0.8287653,0.0,1.1496149,0.6119136,0.4436418,0.0,1.156312,0.4915802,0.49432185,0.0,0.91004086,0.29879785,0.010402622,0.0,0.42653096,0.015614309,-0.17708439,0.0,804.65204,833.663,817.9487,734.1392,718.8278,0.0,0.0,-0.347900390625,-0.02203369140625,0.93841552734375,1.188812255859375,-9.5404052734375,1.06170654296875,3661831.5018315017,128425201.46520148,96352747.25274724,82.67372,1.0,2.0,1.0,1.0,4.0,20.0,/muse/elements/blink,0 days 00:00:00.001000
2023-11-16 12:20:34.404,0.52060324,1.0568194,0.8287653,0.0,1.1496149,0.6119136,0.4436418,0.0,1.156312,0.4915802,0.49432185,0.0,0.91004086,0.29879785,0.010402622,0.0,0.42653096,0.015614309,-0.17708439,0.0,823.1868,844.94507,823.9927,725.2747,670.07324,0.0,0.0,-0.347900390625,-0.02203369140625,0.93841552734375,1.188812255859375,-9.5404052734375,1.06170654296875,3661831.5018315017,128425201.46520148,96352747.25274724,82.67372,1.0,2.0,1.0,1.0,4.0,20.0,/muse/elements/blink,0 days 00:00:00
2023-11-16 12:20:34.444,0.52060324,1.0568194,0.8287653,0.0,1.1496149,0.6119136,0.4436418,0.0,1.156312,0.4915802,0.49432185,0.0,0.91004086,0.29879785,0.010402622,0.0,0.42653096,0.015614309,-0.17708439,0.0,829.2308,838.49817,832.0513,928.3516,775.2381,0.0,0.0,-0.34271240234375,-0.0220947265625,0.95550537109375,2.699127197265625,-7.16278076171875,1.375732421875,3659413.919413919,128327692.3076923,96313260.07326008,83.25052,1.0,2.0,1.0,1.0,4.0,20.0,/muse/elements/blink,0 days 00:00:00.040000
2023-11-16 12:20:34.444,0.52060324,1.0568194,0.8287653,0.0,1.1496149,0.6119136,0.4436418,0.0,1.156312,0.4915802,0.49432185,0.0,0.91004086,0.29879785,0.010402622,0.0,0.42653096,0.015614309,-0.17708439,0.0,826.8132,836.08057,826.8132,996.8498,890.07324,0.0,0.0,-0.34271240234375,-0.0220947265625,0.95550537109375,2.699127197265625,-7.16278076171875,1.375732421875,3659413.919413919,128327692.3076923,96313260.07326008,83.25052,1.0,2.0,1.0,1.0,4.0,20.0,/muse/elements/blink,0 days 00:00:00
2023-11-16 12:20:34.445,0.52060324,1.0568194,0.8287653,0.0,1.1496149,0.6119136,0.4436418,0.0,1.156312,0.4915802,0.49432185,0.0,0.91004086,0.29879785,0.010402622,0.0,0.42653096,0.015614309,-0.17708439,0.0,819.15753,838.0952,827.619,827.2161,773.22345,0.0,0.0,-0.34271240234375,-0.0220947265625,0.95550537109375,2.699127197265625,-7.16278076171875,1.375732421875,3659413.919413919,128327692.3076923,96313260.07326008,83.25052,1.0,2.0,1.0,1.0,4.0,20.0,/muse/elements/blink,0 days 00:00:00.001000
2023-11-16 12:20:34.445,0.52060324,1.0568194,0.8287653,0.0,1.1496149,0.6119136,0.4436418,0.0,1.156312,0.4915802,0.49432185,0.0,0.91004086,0.29879785,0.010402622,0.0,0.42653096,0.015614309,-0.17708439,0.0,805.8608,836.08057,835.2747,743.4066,694.2491,0.0,0.0,-0.34271240234375,-0.0220947265625,0.95550537109375,2.699127197265625,-7.16278076171875,1.375732421875,3659413.919413919,128327692.3076923,96313260.07326008,83.25052,1.0,2.0,1.0,1.0,4.0,20.0,/muse/elements/blink,0 days 00:00:00
2023-11-16 12:20:34.446,0.52060324,1.0568194,0.8287653,0.0,1.1496149,0.6119136,0.4436418,0.0,1.156312,0.4915802,0.49432185,0.0,0.91004086,0.29879785,0.010402622,0.0,0.42653096,0.015614309,-0.17708439,0.0,816.337,829.6337,836.8865,861.06226,749.85345,0.0,0.0,-0.34271240234375,-0.0220947265625,0.95550537109375,2.699127197265625,-7.16278076171875,1.375732421875,3659413.919413919,128327692.3076923,96313260.07326008,83.25052,1.0,2.0,1.0,1.0,4.0,20.0,/muse/elements/blink,0 days 00:00:00.001000
2023-11-16 12:20:34.446,0.52060324,1.0568194,0.8287653,0.0,1.1496149,0.6119136,0.4436418,0.0,1.156312,0.4915802,0.49432185,0.0,0.91004086,0.29879785,0.010402622,0.0,0.42653096,0.015614309,-0.17708439,0.0,817.1429,826.8132,834.87177,973.0769,813.5165,0.0,0.0,-0.34271240234375,-0.0220947265625,0.95550537109375,2.699127197265625,-7.16278076171875,1.375732421875,3659413.919413919,128327692.3076923,96313260.07326008,83.25052,1.0,2.0,1.0,1.0,4.0,20.0,/muse/elements/blink,0 days 00:00:00
2023-11-16 12:20:34.447,0.52060324,1.0568194,0.8287653,0.0,1.1496149,0.6119136,0.4436418,0.0,1.156312,0.4915802,0.49432185,0.0,0.91004086,0.29879785,0.010402622,0.0,0.42653096,0.015614309,-0.17708439,0.0,811.50183,836.4835,825.6044,879.19415,870.32965,0.0,0.0,-0.34271240234375,-0.0220947265625,0.95550537109375,2.699127197265625,-7.16278076171875,1.375732421875,3659413.919413919,128327692.3076923,96313260.07326008,83.25052,1.0,2.0,1.0,1.0,4.0,20.0,/muse/elements/blink,0 days 00:00:00.001000
2023-11-16 12:20:34.447,0.52060324,1.0568194,0.8287653,0.0,1.1496149,0.6119136,0.4436418,0.0,1.156312,0.4915802,0.49432185,0.0,0.91004086,0.29879785,0.010402622,0.0,0.42653096,0.015614309,-0.17708439,0.0,805.4579,842.52747,824.7985,709.15753,832.0513,0.0,0.0,-0.34271240234375,-0.0220947265625,0.95550537109375,2.699127197265625,-7.16278076171875,1.375732421875,3659413.919413919,128327692.3076923,96313260.07326008,83.25052,1.0,2.0,1.0,1.0,4.0,20.0,/muse/elements/blink,0 days 00:00:00
2023-11-16 12:20:34.447,0.52060324,1.0568194,0.8287653,0.0,1.1496149,0.6119136,0.4436418,0.0,1.156312,0.4915802,0.49432185,0.0,0.91004086,0.29879785,0.010402622,0.0,0.42653096,0.015614309,-0.17708439,0.0,817.5458,845.7509,836.4835,782.0879,788.1319,0.0,0.0,-0.34271240234375,-0.0220947265625,0.95550537109375,2.699127197265625,-7.16278076171875,1.375732421875,3659413.919413919,128327692.3076923,96313260.07326008,83.25052,1.0,2.0,1.0,1.0,4.0,20.0,/muse/elements/blink,0 days 00:00:00
2023-11-16 12:20:34.448,0.52060324,1.0568194,0.8287653,0.0,1.1496149,0.6119136,0.4436418,0.0,1.156312,0.4915802,0.49432185,0.0,0.91004086,0.29879785,0.010402622,0.0,0.42653096,0.015614309,-0.17708439,0.0,854.21246,844.94507,842.1245,971.8681,944.87177,0.0,0.0,-0.34271240234375,-0.0220947265625,0.95550537109375,2.699127197265625,-7.16278076171875,1.375732421875,3659413.919413919,128327692.3076923,96313260.07326008,83.25052,1.0,2.0,1.0,1.0,4.0,20.0,/muse/elements/blink,0 days 00:00:00.001000
2023-11-16 12:20:34.448,0.52060324,1.0568194,0.8287653,0.0,1.1496149,0.6119136,0.4436418,0.0,1.156312,0.4915802,0.49432185,0.0,0.91004086,0.29879785,0.010402622,0.0,0.42653096,0.015614309,-0.17708439,0.0,852.6007,846.1539,836.4835,918.68134,1058.0952,0.0,0.0,-0.34271240234375,-0.0220947265625,0.95550537109375,2.699127197265625,-7.16278076171875,1.375732421875,3659413.919413919,128327692.3076923,96313260.07326008,83.25052,1.0,2.0,1.0,1.0,4.0,20.0,/muse/elements/blink,0 days 00:00:00
2023-11-16 12:20:34.449,0.52060324,1.0568194,0.8287653,0.0,1.1496149,0.6119136,0.4436418,0.0,1.156312,0.4915802,0.49432185,0.0,0.91004086,0.29879785,0.010402622,0.0,0.42653096,0.015614309,-0.17708439,0.0,815.9341,856.2271,832.0513,694.2491,813.91943,0.0,0.0,-0.34271240234375,-0.0220947265625,0.95550537109375,2.699127197265625,-7.16278076171875,1.375732421875,3659413.919413919,128327692.3076923,96313260.07326008,83.25052,1.0,2.0,1.0,1.0,4.0,20.0,/muse/elements/blink,0 days 00:00:00.001000
2023-11-16 12:20:34.480,0.52060324,1.0568194,0.8287653,0.0,1.1496149,0.6119136,0.4436418,0.0,1.156312,0.4915802,0.49432185,0.0,0.91004086,0.29879785,0.010402622,0.0,0.42653096,0.015614309,-0.17708439,0.0,808.68134,859.45056,833.663,685.78754,726.4835,0.0,0.0,-0.34100341796875,-0.01873779296875,0.94573974609375,3.69354248046875,-7.738494873046875,1.86920166015625,3659413.919413919,128327692.3076923,96313260.07326008,83.25052,1.0,2.0,1.0,1.0,4.0,20.0,/muse/elements/blink,0 days 00:00:00.031000
2023-11-16 12:20:34.481,0.52060324,1.0568194,0.8287653,0.0,1.1496149,0.6119136,0.4436418,0.0,1.156312,0.4915802,0.49432185,0.0,0.91004086,0.29879785,0.010402622,0.0,0.42653096,0.015614309,-0.17708439,0.0,853.8095,865.89746,825.6044,875.9707,783.69965,0.0,0.0,-0.34100341796875,-0.01873779296875,0.94573974609375,3.69354248046875,-7.738494873046875,1.86920166015625,3659413.919413919,128327692.3076923,96313260.07326008,83.25052,1.0,2.0,1.0,1.0,4.0,20.0,/muse/elements/blink,0 days 00:00:00.001000
2023-11-16 12:20:34.481,0.52060324,1.0568194,0.8287653,0.0,1.1496149,0.6119136,0.4436418,0.0,1.156312,0.4915802,0.49432185,0.0,0.91004086,0.29879785,0.010402622,0.0,0.42653096,0.015614309,-0.17708439,0.0,861.4652,868.71796,832.0513,898.5348,751.4652,0.0,0.0,-0.34100341796875,-0.01873779296875,0.94573974609375,3.69354248046875,-7.738494873046875,1.86920166015625,3659413.919413919,128327692.3076923,96313260.07326008,83.25052,1.0,2.0,1.0,1.0,4.0,20.0,/muse/elements/blink,0 days 00:00:00
2023-11-16 12:20:34.482,0.52060324,1.0568194,0.8287653,0.0,1.1496149,0.6119136,0.4436418,0.0,1.156312,0.4915802,0.49432185,0.0,0.91004086,0.29879785,0.010402622,0.0,0.42653096,0.015614309,-0.17708439,0.0,821.978,848.5714,849.7802,714.7985,738.1685,0.0,0.0,-0.34100341796875,-0.01873779296875,0.94573974609375,3.69354248046875,-7.738494873046875,1.86920166015625,3659413.919413919,128327692.3076923,96313260.07326008,83.25052,1.0,2.0,1.0,1.0,4.0,20.0,/muse/elements/blink,0 days 00:00:00.001000
2023-11-16 12:20:34.482,0.52060324,1.0568194,0.8287653,0.0,1.1496149,0.6119136,0.4436418,0.0,1.156312,0.4915802,0.49432185,0.0,0.91004086,0.29879785,0.010402622,0.0,0.42653096,0.015614309,-0.17708439,0.0,801.02563,830.0366,855.82416,671.685,773.6264,0.0,0.0,-0.34100341796875,-0.01873779296875,0.94573974609375,3.69354248046875,-7.738494873046875,1.86920166015625,3659413.919413919,128327692.3076923,96313260.07326008,83.25052,1.0,2.0,1.0,1.0,4.0,20.0,/muse/elements/blink,0 days 00:00:00
2023-11-16 12:20:34.483,0.52060324,1.0568194,0.8287653,0.0,1.1496149,0.6119136,0.4436418,0.0,1.156312,0.4915802,0.49432185,0.0,0.91004086,0.29879785,0.010402622,0.0,0.42653096,0.015614309,-0.17708439,0.0,794.17584,820.3663,859.0476,871.13556,907.8022,0.0,0.0,-0.34100341796875,-0.01873779296875,0.94573974609375,3.69354248046875,-7.738494873046875,1.86920166015625,3659413.919413919,128327692.3076923,96313260.07326008,83.25052,1.0,2.0,1.0,1.0,4.0,20.0,/muse/elements/blink,0 days 00:00:00.001000
2023-11-16 12:20:34.483,0.52060324,1.0568194,0.8287653,0.0,1.1496149,0.6119136,0.4436418,0.0,1.156312,0.4915802,0.49432185,0.0,0.91004086,0.29879785,0.010402622,0.0,0.42653096,0.015614309,-0.17708439,0.0,784.5055,812.3077,859.0476,949.707,896.52014,0.0,0.0,-0.34100341796875,-0.01873779296875,0.94573974609375,3.69354248046875,-7.738494873046875,1.86920166015625,3659413.919413919,128327692.3076923,96313260.07326008,83.25052,1.0,2.0,1.0,1.0,4.0,20.0,/muse/elements/blink,0 days 00:00:00
2023-11-16 12:20:34.484,0.52060324,1.0568194,0.8287653,0.0,1.1496149,0.6119136,0.4436418,0.0,1.156312,0.4915802,0.49432185,0.0,0.91004086,0.29879785,0.010402622,0.0,0.42653096,0.015614309,-0.17708439,0.0,799.81683,822.7839,858.6447,788.93774,745.82416,0.0,0.0,-0.34100341796875,-0.01873779296875,0.94573974609375,3.69354248046875,-7.738494873046875,1.86920166015625,3659413.919413919,128327692.3076923,96313260.07326008,83.25052,1.0,2.0,1.0,1.0,4.0,20.0,/muse/elements/blink,0 days 00:00:00.001000
2023-11-16 12:20:34.484,0.52060324,1.0568194,0.8287653,0.0,1.1496149,0.6119136,0.4436418,0.0,1.156312,0.4915802,0.49432185,0.0,0.91004086,0.29879785,0.010402622,0.0,0.42653096,0.015614309,-0.17708439,0.0,812.71063,822.7839,859.0476,694.2491,753.0769,0.0,0.0,-0.34100341796875,-0.01873779296875,0.94573974609375,3.69354248046875,-7.738494873046875,1.86920166015625,3659413.919413919,128327692.3076923,96313260.07326008,83.25052,1.0,2.0,1.0,1.0,4.0,20.0,/muse/elements/blink,0 days 00:00:00
2023-11-16 12:20:34.485,0.52060324,1.0568194,0.8287653,0.0,1.1496149,0.6119136,0.4436418,0.0,1.156312,0.4915802,0.49432185,0.0,0.91004086,0.29879785,0.010402622,0.0,0.42653096,0.015614309,-0.17708439,0.0,809.4872,807.47253,848.97437,848.5714,1031.9048,0.0,0.0,-0.34100341796875,-0.01873779296875,0.94573974609375,3.69354248046875,-7.738494873046875,1.86920166015625,3659413.919413919,128327692.3076923,96313260.07326008,83.25052,1.0,2.0,1.0,1.0,4.0,20.0,/muse/elements/blink,0 days 00:00:00.001000
