TimeStamp,Delta_TP9,Delta_AF7,Delta_AF8,Delta_TP10,Theta_TP9,Theta_AF7,Theta_AF8,Theta_TP10,Alpha_TP9,Alpha_AF7,Alpha_AF8,Alpha_TP10,Beta_TP9,Beta_AF7,Beta_AF8,Beta_TP10,Gamma_TP9,Gamma_AF7,Gamma_AF8,Gamma_TP10,RAW_TP9,RAW_AF7,RAW_AF8,RAW_TP10,AUX_RIGHT,Mellow,Concentration,Accelerometer_X,Accelerometer_Y,Accelerometer_Z,Gyro_X,Gyro_Y,Gyro_Z,PPG_Ambient,PPG_IR,PPG_Red,Heart_Rate,HeadBandOn,HSI_TP9,HSI_AF7,HSI_AF8,HSI_TP10,Battery,Elements,TimeDifference
2023-11-16 11:42:50.234,1.4566671,-3.7571816,0.23494633,0.63763773,1.0126709,-3.8708124,0.090785004,0.4097682,1.2169814,-4.038089,0.46169814,0.7288896,1.096937,-3.2491505,0.28227314,1.0811905,1.0527841,-3.475248,0.0001251477,0.88113993,776.4469,55.201466,791.3553,783.2967,773.22345,0.0,0.0,-0.06689453125,-0.008056640625,1.00457763671875,3.162689208984375,-4.7552490234375,1.83929443359375,1893772.8937728936,95231794.87179486,36624761.9047619,70.09482,1.0,1.0,4.0,1.0,1.0,40.0,,0 days 00:00:00.048000
2023-11-16 11:42:50.235,1.4566671,-3.7571816,0.23494633,0.63763773,1.0126709,-3.8708124,0.090785004,0.4097682,1.2169814,-4.038089,0.46169814,0.7288896,1.096937,-3.2491505,0.28227314,1.0811905,1.0527841,-3.475248,0.0001251477,0.88113993,798.60803,141.02563,799.41394,795.78754,727.6923,0.0,0.0,-0.06689453125,-0.008056640625,1.00457763671875,3.162689208984375,-4.7552490234375,1.83929443359375,1893772.8937728936,95231794.87179486,36624761.9047619,70.09482,1.0,1.0,4.0,1.0,1.0,40.0,,0 days 00:00:00.001000
2023-11-16 11:42:50.236,1.4566671,-3.7571816,0.23494633,0.63763773,1.0126709,-3.8708124,0.090785004,0.4097682,1.2169814,-4.038089,0.46169814,0.7288896,1.096937,-3.2491505,0.28227314,1.0811905,1.0527841,-3.475248,0.0001251477,0.88113993,800.2198,110.40293,808.2784,778.46155,821.1722,0.0,0.0,-0.06689453125,-0.008056640625,1.00457763671875,3.162689208984375,-4.7552490234375,1.83929443359375,1893772.8937728936,95231794.87179486,36624761.9047619,70.09482,1.0,1.0,4.0,1.0,1.0,40.0,,0 days 00:00:00.001000
2023-11-16 11:42:50.236,1.4566671,-3.7571816,0.23494633,0.63763773,1.0126709,-3.8708124,0.090785004,0.4097682,1.2169814,-4.038089,0.46169814,0.7288896,1.096937,-3.2491505,0.28227314,1.0811905,1.0527841,-3.475248,0.0001251477,0.88113993,790.14655,37.875458,812.71063,798.60803,862.27106,0.0,0.0,-0.06689453125,-0.008056640625,1.00457763671875,3.162689208984375,-4.7552490234375,1.83929443359375,1893772.8937728936,95231794.87179486,36624761.9047619,70.09482,1.0,1.0,4.0,1.0,1.0,40.0,,0 days 00:00:00
2023-11-16 11:42:50.237,1.4566671,-3.7571816,0.23494633,0.63763773,1.0126709,-3.8708124,0.090785004,0.4097682,1.2169814,-4.038089,0.46169814,0.7288896,1.096937,-3.2491505,0.28227314,1.0811905,1.0527841,-3.475248,0.0001251477,0.88113993,787.326,149.48718,809.4872,779.67035,753.47986,0.0,0.0,-0.06689453125,-0.008056640625,1.00457763671875,3.162689208984375,-4.7552490234375,1.83929443359375,1893772.8937728936,95231794.87179486,36624761.9047619,70.09482,1.0,1.0,4.0,1.0,1.0,40.0,,0 days 00:00:00.001000
2023-11-16 11:42:50.238,1.4566671,-3.7571816,0.23494633,0.63763773,1.0126709,-3.8708124,0.090785004,0.4097682,1.2169814,-4.038089,0.46169814,0.7288896,1.096937,-3.2491505,0.28227314,1.0811905,1.0527841,-3.475248,0.0001251477,0.88113993,765.56775,46.739925,806.26373,767.5824,761.13556,0.0,0.0,-0.06689453125,-0.008056640625,1.00457763671875,3.162689208984375,-4.7552490234375,1.83929443359375,1893772.8937728936,95231794.87179486,36624761.9047619,70.09482,1.0,1.0,4.0,1.0,1.0,40.0,,0 days 00:00:00.001000
2023-11-16 11:42:50.238,1.4566671,-3.7571816,0.23494633,0.63763773,1.0126709,-3.8708124,0.090785004,0.4097682,1.2169814,-4.038089,0.46169814,0.7288896,1.096937,-3.2491505,0.28227314,1.0811905,1.0527841,-3.475248,0.0001251477,0.88113993,798.20514,0.0,810.293,829.2308,913.44324,0.0,0.0,-0.06689453125,-0.008056640625,1.00457763671875,3.162689208984375,-4.7552490234375,1.83929443359375,1893772.8937728936,95231794.87179486,36624761.9047619,70.09482,1.0,1.0,4.0,1.0,1.0,40.0,,0 days 00:00:00
2023-11-16 11:42:50.239,1.4566671,-3.7571816,0.23494633,0.63763773,1.0126709,-3.8708124,0.090785004,0.4097682,1.2169814,-4.038089,0.46169814,0.7288896,1.096937,-3.2491505,0.28227314,1.0811905,1.0527841,-3.475248,0.0001251477,0.88113993,800.6227,5.2380953,812.3077,814.7253,924.7253,0.0,0.0,-0.06689453125,-0.008056640625,1.00457763671875,3.162689208984375,-4.7552490234375,1.83929443359375,1893772.8937728936,95231794.87179486,36624761.9047619,70.09482,1.0,1.0,4.0,1.0,1.0,40.0,,0 days 00:00:00.001000
2023-11-16 11:42:50.239,1.4566671,-3.7571816,0.23494633,0.63763773,1.0126709,-3.8708124,0.090785004,0.4097682,1.2169814,-4.038089,0.46169814,0.7288896,1.096937,-3.2491505,0.28227314,1.0811905,1.0527841,-3.475248,0.0001251477,0.88113993,769.59705,151.0989,794.57874,755.09155,686.5934,0.0,0.0,-0.06689453125,-0.008056640625,1.00457763671875,3.162689208984375,-4.7552490234375,1.83929443359375,1893772.8937728936,95231794.87179486,36624761.9047619,70.09482,1.0,1.0,4.0,1.0,1.0,40.0,,0 days 00:00:00
2023-11-16 11:42:50.240,1.4566671,-3.7571816,0.23494633,0.63763773,1.0126709,-3.8708124,0.090785004,0.4097682,1.2169814,-4.038089,0.46169814,0.7288896,1.096937,-3.2491505,0.28227314,1.0811905,1.0527841,-3.475248,0.0001251477,0.88113993,788.5348,138.60806,802.6374,770.80585,672.8938,0.0,0.0,-0.06689453125,-0.008056640625,1.00457763671875,3.162689208984375,-4.7552490234375,1.83929443359375,1893772.8937728936,95231794.87179486,36624761.9047619,70.09482,1.0,1.0,4.0,1.0,1.0,40.0,,0 days 00:00:00.001000
2023-11-16 11:42:50.240,1.4566671,-3.7571816,0.23494633,0.63763773,1.0126709,-3.8708124,0.090785004,0.4097682,1.2169814,-4.038089,0.46169814,0.7288896,1.096937,-3.2491505,0.28227314,1.0811905,1.0527841,-3.475248,0.0001251477,0.88113993,780.4762,0.0,815.5311,776.4469,842.1245,0.0,0.0,-0.06689453125,-0.008056640625,1.00457763671875,3.162689208984375,-4.7552490234375,1.83929443359375,1893772.8937728936,95231794.87179486,36624761.9047619,70.09482,1.0,1.0,4.0,1.0,1.0,40.0,,0 days 00:00:00
2023-11-16 11:42:50.241,1.4566671,-3.7571816,0.23494633,0.63763773,1.0126709,-3.8708124,0.090785004,0.4097682,1.2169814,-4.038089,0.46169814,0.7288896,1.096937,-3.2491505,0.28227314,1.0811905,1.0527841,-3.475248,0.0001251477,0.88113993,747.03296,71.31868,809.4872,759.92676,839.707,0.0,0.0,-0.06689453125,-0.008056640625,1.00457763671875,3.162689208984375,-4.7552490234375,1.83929443359375,1893772.8937728936,95231794.87179486,36624761.9047619,70.09482,1.0,1.0,4.0,1.0,1.0,40.0,,0 days 00:00:00.001000
2023-11-16 11:42:50.292,1.4566671,-3.7571816,0.23494633,0.63763773,1.0126709,-3.8708124,0.090785004,0.4097682,1.2169814,-4.038089,0.46169814,0.7288896,1.096937,-3.2491505,0.28227314,1.0811905,1.0527841,-3.475248,0.0001251477,0.88113993,747.8388,223.22345,807.8755,777.25275,678.5348,0.0,0.0,-0.06689453125,-0.008056640625,1.00457763671875,3.162689208984375,-4.7552490234375,1.83929443359375,1893772.8937728936,95231794.87179486,36624761.9047619,70.09482,1.0,1.0,4.0,1.0,1.0,40.0,,0 days 00:00:00.051000
2023-11-16 11:42:50.293,1.4566671,-3.7571816,0.23494633,0.63763773,1.0126709,-3.8708124,0.090785004,0.4097682,1.2169814,-4.038089,0.46169814,0.7288896,1.096937,-3.2491505,0.28227314,1.0811905,1.0527841,-3.475248,0.0001251477,0.88113993,780.4762,220.80586,809.0842,805.8608,698.68134,0.0,0.0,-0.06689453125,-0.008056640625,1.00457763671875,3.162689208984375,-4.7552490234375,1.83929443359375,1893772.8937728936,95231794.87179486,36624761.9047619,70.09482,1.0,1.0,4.0,1.0,1.0,40.0,,0 days 00:00:00.001000
2023-11-16 11:42:50.293,1.4566671,-3.7571816,0.23494633,0.63763773,1.0126709,-3.8708124,0.090785004,0.4097682,1.2169814,-4.038089,0.46169814,0.7288896,1.096937,-3.2491505,0.28227314,1.0811905,1.0527841,-3.475248,0.0001251477,0.88113993,783.69965,110.80586,809.4872,777.25275,767.1795,0.0,0.0,-0.06689453125,-0.008056640625,1.00457763671875,3.162689208984375,-4.7552490234375,1.83929443359375,1893772.8937728936,95231794.87179486,36624761.9047619,70.09482,1.0,1.0,4.0,1.0,1.0,40.0,,0 days 00:00:00
2023-11-16 11:42:50.294,1.4566671,-3.7571816,0.23494633,0.63763773,1.0126709,-3.8708124,0.090785004,0.4097682,1.2169814,-4.038089,0.46169814,0.7288896,1.096937,-3.2491505,0.28227314,1.0811905,1.0527841,-3.475248,0.0001251477,0.88113993,787.72894,66.48351,813.1135,777.6557,772.01465,0.0,0.0,-0.06689453125,-0.008056640625,1.00457763671875,3.162689208984375,-4.7552490234375,1.83929443359375,1893772.8937728936,95231794.87179486,36624761.9047619,70.09482,1.0,1.0,4.0,1.0,1.0,40.0,,0 days 00:00:00.001000
2023-11-16 11:42:50.294,1.4566671,-3.7571816,0.23494633,0.63763773,1.0126709,-3.8708124,0.090785004,0.4097682,1.2169814,-4.038089,0.46169814,0.7288896,1.096937,-3.2491505,0.28227314,1.0811905,1.0527841,-3.475248,0.0001251477,0.88113993,793.7729,22.564102,815.9341,783.69965,735.34796,0.0,0.0,-0.06689453125,-0.008056640625,1.00457763671875,3.162689208984375,-4.7552490234375,1.83929443359375,1893772.8937728936,95231794.87179486,36624761.9047619,70.09482,1.0,1.0,4.0,1.0,1.0,40.0,,0 days 00:00:00
2023-11-16 11:42:50.295,1.4566671,-3.7571816,0.23494633,0.63763773,1.0126709,-3.8708124,0.090785004,0.4097682,1.2169814,-4.038089,0.46169814,0.7288896,1.096937,-3.2491505,0.28227314,1.0811905,1.0527841,-3.475248,0.0001251477,0.88113993,764.7619,10.07326,813.1135,779.67035,718.4249,0.0,0.0,-0.06689453125,-0.008056640625,1.00457763671875,3.162689208984375,-4.7552490234375,1.83929443359375,1893772.8937728936,95231794.87179486,36624761.9047619,70.09482,1.0,1.0,4.0,1.0,1.0,40.0,,0 days 00:00:00.001000
2023-11-16 11:42:50.295,1.4566671,-3.7571816,0.23494633,0.63763773,1.0126709,-3.8708124,0.090785004,0.4097682,1.2169814,-4.038089,0.46169814,0.7288896,1.096937,-3.2491505,0.28227314,1.0811905,1.0527841,-3.475248,0.0001251477,0.88113993,784.5055,0.0,818.7546,798.60803,963.4066,0.0,0.0,-0.06689453125,-0.008056640625,1.00457763671875,3.162689208984375,-4.7552490234375,1.83929443359375,1893772.8937728936,95231794.87179486,36624761.9047619,70.09482,1.0,1.0,4.0,1.0,1.0,40.0,,0 days 00:00:00
2023-11-16 11:42:50.296,1.4566671,-3.7571816,0.23494633,0.63763773,1.0126709,-3.8708124,0.090785004,0.4097682,1.2169814,-4.038089,0.46169814,0.7288896,1.096937,-3.2491505,0.28227314,1.0811905,1.0527841,-3.475248,0.0001251477,0.88113993,790.54944,5.2380953,817.5458,823.1868,963.00366,0.0,0.0,-0.06689453125,-0.008056640625,1.00457763671875,3.162689208984375,-4.7552490234375,1.83929443359375,1893772.8937728936,95231794.87179486,36624761.9047619,70.09482,1.0,1.0,4.0,1.0,1.0,40.0,,0 days 00:00:00.001000
2023-11-16 11:42:50.296,1.4566671,-3.7571816,0.23494633,0.63763773,1.0126709,-3.8708124,0.090785004,0.4097682,1.2169814,-4.038089,0.46169814,0.7288896,1.096937,-3.2491505,0.28227314,1.0811905,1.0527841,-3.475248,0.0001251477,0.88113993,781.685,126.11722,800.2198,822.381,681.75824,0.0,0.0,-0.06689453125,-0.008056640625,1.00457763671875,3.162689208984375,-4.7552490234375,1.83929443359375,1893772.8937728936,95231794.87179486,36624761.9047619,70.09482,1.0,1.0,4.0,1.0,1.0,40.0,,0 days 00:00:00
2023-11-16 11:42:50.297,1.4566671,-3.7571816,0.23494633,0.63763773,1.0126709,-3.8708124,0.090785004,0.4097682,1.2169814,-4.038089,0.46169814,0.7288896,1.096937,-3.2491505,0.28227314,1.0811905,1.0527841,-3.475248,0.0001251477,0.88113993,770.40295,106.37363,803.8461,774.0293,728.0952,0.0,0.0,-0.06689453125,-0.008056640625,1.00457763671875,3.162689208984375,-4.7552490234375,1.83929443359375,1893772.8937728936,95231794.87179486,36624761.9047619,70.09482,1.0,1.0,4.0,1.0,1.0,40.0,,0 days 00:00:00.001000
2023-11-16 11:42:50.297,1.4566671,-3.7571816,0.23494633,0.63763773,1.0126709,-3.8708124,0.090785004,0.4097682,1.2169814,-4.038089,0.46169814,0.7288896,1.096937,-3.2491505,0.28227314,1.0811905,1.0527841,-3.475248,0.0001251477,0.88113993,779.67035,98.31502,809.89014,763.95605,769.59705,0.0,0.0,-0.06689453125,-0.008056640625,1.00457763671875,3.162689208984375,-4.7552490234375,1.83929443359375,1893772.8937728936,95231794.87179486,36624761.9047619,70.09482,1.0,1.0,4.0,1.0,1.0,40.0,,0 days 00:00:00
2023-11-16 11:42:50.298,1.4566671,-3.7571816,0.24687366,0.63763773,1.0126709,-3.8708124,0.041874304,0.4097682,1.2169814,-4.038089,0.46955335,0.7288896,1.096937,-3.2491505,0.29724777,1.0811905,1.0527841,-3.475248,-0.010520442,0.88113993,788.1319,264.32236,806.26373,790.54944,736.1539,0.0,0.0,-0.06689453125,-0.008056640625,1.00457763671875,3.162689208984375,-4.7552490234375,1.83929443359375,1893772.8937728936,95231794.87179486,36624761.9047619,70.09482,1.0,1.0,4.0,1.0,1.0,40.0,,0 days 00:00:00.001000
2023-11-16 11:42:50.335,1.4566671,-3.7571816,0.24687366,0.63763773,1.0126709,-3.8708124,0.041874304,0.4097682,1.2169814,-4.038089,0.46955335,0.7288896,1.096937,-3.2491505,0.29724777,1.0811905,1.0527841,-3.475248,-0.010520442,0.88113993,769.59705,158.75458,808.2784,780.87915,712.381,0.0,0.0,-0.074462890625,-0.00018310546875,1.01513671875,3.69354248046875,-1.951446533203125,3.117828369140625,1890549.4505494505,95098021.97802198,36595750.91575091,70.09482,1.0,1.0,4.0,1.0,1.0,40.0,,0 days 00:00:00.037000
2023-11-16 11:42:50.336,1.4566671,-3.7571816,0.24687366,0.63763773,1.0126709,-3.8708124,0.041874304,0.4097682,1.2169814,-4.038089,0.46955335,0.7288896,1.096937,-3.2491505,0.29724777,1.0811905,1.0527841,-3.475248,-0.010520442,0.88113993,763.1502,16.117216,814.7253,795.38464,708.3516,0.0,0.0,-0.074462890625,-0.00018310546875,1.01513671875,3.69354248046875,-1.951446533203125,3.117828369140625,1890549.4505494505,95098021.97802198,36595750.91575091,70.09482,1.0,1.0,4.0,1.0,1.0,40.0,,0 days 00:00:00.001000
2023-11-16 11:42:50.337,1.4566671,-3.7571816,0.24687366,0.63763773,1.0126709,-3.8708124,0.041874304,0.4097682,1.2169814,-4.038089,0.46955335,0.7288896,1.096937,-3.2491505,0.29724777,1.0811905,1.0527841,-3.475248,-0.010520442,0.88113993,787.72894,124.10256,812.71063,807.47253,734.94507,0.0,0.0,-0.074462890625,-0.00018310546875,1.01513671875,3.69354248046875,-1.951446533203125,3.117828369140625,1890549.4505494505,95098021.97802198,36595750.91575091,70.09482,1.0,1.0,4.0,1.0,1.0,40.0,,0 days 00:00:00.001000
2023-11-16 11:42:50.337,1.4566671,-3.7571816,0.24687366,0.63763773,1.0126709,-3.8708124,0.041874304,0.4097682,1.2169814,-4.038089,0.46955335,0.7288896,1.096937,-3.2491505,0.29724777,1.0811905,1.0527841,-3.475248,-0.010520442,0.88113993,781.685,202.674,806.6667,789.7436,683.7729,0.0,0.0,-0.074462890625,-0.00018310546875,1.01513671875,3.69354248046875,-1.951446533203125,3.117828369140625,1890549.4505494505,95098021.97802198,36595750.91575091,70.09482,1.0,1.0,4.0,1.0,1.0,40.0,,0 days 00:00:00
2023-11-16 11:42:50.338,1.4566671,-3.7571816,0.24687366,0.63763773,1.0126709,-3.8708124,0.041874304,0.4097682,1.2169814,-4.038089,0.46955335,0.7288896,1.096937,-3.2491505,0.29724777,1.0811905,1.0527841,-3.475248,-0.010520442,0.88113993,784.90845,66.886444,810.293,777.6557,647.50916,0.0,0.0,-0.074462890625,-0.00018310546875,1.01513671875,3.69354248046875,-1.951446533203125,3.117828369140625,1890549.4505494505,95098021.97802198,36595750.91575091,70.09482,1.0,1.0,4.0,1.0,1.0,40.0,,0 days 00:00:00.001000
2023-11-16 11:42:50.338,1.4566671,-3.7571816,0.24687366,0.63763773,1.0126709,-3.8708124,0.041874304,0.4097682,1.2169814,-4.038089,0.46955335,0.7288896,1.096937,-3.2491505,0.29724777,1.0811905,1.0527841,-3.475248,-0.010520442,0.88113993,794.9817,0.0,814.7253,792.5641,761.13556,0.0,0.0,-0.074462890625,-0.00018310546875,1.01513671875,3.69354248046875,-1.951446533203125,3.117828369140625,1890549.4505494505,95098021.97802198,36595750.91575091,70.09482,1.0,1.0,4.0,1.0,1.0,40.0,,0 days 00:00:00
2023-11-16 11:42:50.339,1.4566671,-3.7571816,0.24687366,0.63763773,1.0126709,-3.8708124,0.041874304,0.4097682,1.2169814,-4.038089,0.46955335,0.7288896,1.096937,-3.2491505,0.29724777,1.0811905,1.0527841,-3.475248,-0.010520442,0.88113993,793.7729,5.6410255,815.9341,790.9524,833.2601,0.0,0.0,-0.074462890625,-0.00018310546875,1.01513671875,3.69354248046875,-1.951446533203125,3.117828369140625,1890549.4505494505,95098021.97802198,36595750.91575091,70.09482,1.0,1.0,4.0,1.0,1.0,40.0,,0 days 00:00:00.001000
2023-11-16 11:42:50.340,1.4566671,-3.7571816,0.24687366,0.63763773,1.0126709,-3.8708124,0.041874304,0.4097682,1.2169814,-4.038089,0.46955335,0.7288896,1.096937,-3.2491505,0.29724777,1.0811905,1.0527841,-3.475248,-0.010520442,0.88113993,784.10254,2.8205128,811.9048,786.52014,826.8132,0.0,0.0,-0.074462890625,-0.00018310546875,1.01513671875,3.69354248046875,-1.951446533203125,3.117828369140625,1890549.4505494505,95098021.97802198,36595750.91575091,70.09482,1.0,1.0,4.0,1.0,1.0,40.0,,0 days 00:00:00.001000
2023-11-16 11:42:50.340,1.4566671,-3.7571816,0.24687366,0.63763773,1.0126709,-3.8708124,0.041874304,0.4097682,1.2169814,-4.038089,0.46955335,0.7288896,1.096937,-3.2491505,0.29724777,1.0811905,1.0527841,-3.475248,-0.010520442,0.88113993,799.41394,6.4468865,810.696,790.9524,798.60803,0.0,0.0,-0.074462890625,-0.00018310546875,1.01513671875,3.69354248046875,-1.951446533203125,3.117828369140625,1890549.4505494505,95098021.97802198,36595750.91575091,70.09482,1.0,1.0,4.0,1.0,1.0,40.0,,0 days 00:00:00
2023-11-16 11:42:50.340,1.4566671,-3.7571816,0.24687366,0.63763773,1.0126709,-3.8708124,0.041874304,0.4097682,1.2169814,-4.038089,0.46955335,0.7288896,1.096937,-3.2491505,0.29724777,1.0811905,1.0527841,-3.475248,-0.010520442,0.88113993,780.07324,0.0,807.47253,787.326,809.89014,0.0,0.0,-0.074462890625,-0.00018310546875,1.01513671875,3.69354248046875,-1.951446533203125,3.117828369140625,1890549.4505494505,95098021.97802198,36595750.91575091,70.09482,1.0,1.0,4.0,1.0,1.0,40.0,,0 days 00:00:00
2023-11-16 11:42:50.340,1.4566671,-3.7571816,0.24687366,0.63763773,1.0126709,-3.8708124,0.041874304,0.4097682,1.2169814,-4.038089,0.46955335,0.7288896,1.096937,-3.2491505,0.29724777,1.0811905,1.0527841,-3.475248,-0.010520442,0.88113993,748.6447,42.71062,799.011,782.8938,811.50183,0.0,0.0,-0.074462890625,-0.00018310546875,1.01513671875,3.69354248046875,-1.951446533203125,3.117828369140625,1890549.4505494505,95098021.97802198,36595750.91575091,70.09482,1.0,1.0,4.0,1.0,1.0,40.0,,0 days 00:00:00
2023-11-16 11:42:50.341,1.4566671,-3.7571816,0.24687366,0.63763773,1.0126709,-3.8708124,0.041874304,0.4097682,1.2169814,-4.038089,0.46955335,0.7288896,1.096937,-3.2491505,0.29724777,1.0811905,1.0527841,-3.475248,-0.010520442,0.88113993,792.1612,258.27838,800.2198,783.69965,775.2381,0.0,0.0,-0.074462890625,-0.00018310546875,1.01513671875,3.69354248046875,-1.951446533203125,3.117828369140625,1890549.4505494505,95098021.97802198,36595750.91575091,70.09482,1.0,1.0,4.0,1.0,1.0,40.0,,0 days 00:00:00.001000
2023-11-16 11:42:50.397,1.4566671,-3.7571816,0.24687366,0.63763773,1.0126709,-3.8708124,0.041874304,0.4097682,1.2169814,-4.038089,0.46955335,0.7288896,1.096937,-3.2491505,0.29724777,1.0811905,1.0527841,-3.475248,-0.010520442,0.88113993,785.7143,206.7033,802.23444,783.2967,747.4359,0.0,0.0,-0.091064453125,0.0020751953125,0.99969482421875,2.444915771484375,-4.000091552734375,2.82623291015625,1890549.4505494505,95098021.97802198,36595750.91575091,70.09482,1.0,1.0,4.0,1.0,1.0,40.0,,0 days 00:00:00.056000
2023-11-16 11:42:50.398,1.4566671,-3.7571816,0.24687366,0.63763773,1.0126709,-3.8708124,0.041874304,0.4097682,1.2169814,-4.038089,0.46955335,0.7288896,1.096937,-3.2491505,0.29724777,1.0811905,1.0527841,-3.475248,-0.010520442,0.88113993,770.40295,0.0,807.0696,791.75824,873.1502,0.0,0.0,-0.091064453125,0.0020751953125,0.99969482421875,2.444915771484375,-4.000091552734375,2.82623291015625,1890549.4505494505,95098021.97802198,36595750.91575091,70.09482,1.0,1.0,4.0,1.0,1.0,40.0,,0 days 00:00:00.001000
2023-11-16 11:42:50.399,1.4566671,-3.7571816,0.24687366,0.63763773,1.0126709,-3.8708124,0.041874304,0.4097682,1.2169814,-4.038089,0.46955335,0.7288896,1.096937,-3.2491505,0.29724777,1.0811905,1.0527841,-3.475248,-0.010520442,0.88113993,786.1172,2.014652,810.696,802.6374,1072.6007,0.0,0.0,-0.091064453125,0.0020751953125,0.99969482421875,2.444915771484375,-4.000091552734375,2.82623291015625,1890549.4505494505,95098021.97802198,36595750.91575091,70.09482,1.0,1.0,4.0,1.0,1.0,40.0,,0 days 00:00:00.001000
2023-11-16 11:42:50.399,1.4566671,-3.7571816,0.24687366,0.63763773,1.0126709,-3.8708124,0.041874304,0.4097682,1.2169814,-4.038089,0.46955335,0.7288896,1.096937,-3.2491505,0.29724777,1.0811905,1.0527841,-3.475248,-0.010520442,0.88113993,778.46155,199.04762,800.2198,769.59705,841.31866,0.0,0.0,-0.091064453125,0.0020751953125,0.99969482421875,2.444915771484375,-4.000091552734375,2.82623291015625,1890549.4505494505,95098021.97802198,36595750.91575091,70.09482,1.0,1.0,4.0,1.0,1.0,40.0,,0 days 00:00:00
2023-11-16 11:42:50.400,1.4566671,-3.7571816,0.24687366,0.63763773,1.0126709,-3.8708124,0.041874304,0.4097682,1.2169814,-4.038089,0.46955335,0.7288896,1.096937,-3.2491505,0.29724777,1.0811905,1.0527841,-3.475248,-0.010520442,0.88113993,782.8938,182.12454,800.2198,761.53845,690.2198,0.0,0.0,-0.091064453125,0.0020751953125,0.99969482421875,2.444915771484375,-4.000091552734375,2.82623291015625,1890549.4505494505,95098021.97802198,36595750.91575091,70.09482,1.0,1.0,4.0,1.0,1.0,40.0,,0 days 00:00:00.001000
2023-11-16 11:42:50.400,1.4566671,-3.7571816,0.24687366,0.63763773,1.0126709,-3.8708124,0.041874304,0.4097682,1.2169814,-4.038089,0.46955335,0.7288896,1.096937,-3.2491505,0.29724777,1.0811905,1.0527841,-3.475248,-0.010520442,0.88113993,810.293,0.0,801.4286,800.2198,748.24176,0.0,0.0,-0.091064453125,0.0020751953125,0.99969482421875,2.444915771484375,-4.000091552734375,2.82623291015625,1890549.4505494505,95098021.97802198,36595750.91575091,70.09482,1.0,1.0,4.0,1.0,1.0,40.0,,0 days 00:00:00
2023-11-16 11:42:50.401,1.4566671,-3.7571816,0.24687366,0.63763773,1.0126709,-3.8708124,0.041874304,0.4097682,1.2169814,-4.038089,0.46955335,0.7288896,1.096937,-3.2491505,0.29724777,1.0811905,1.0527841,-3.475248,-0.010520442,0.88113993,782.8938,0.0,799.011,816.7399,732.52747,0.0,0.0,-0.091064453125,0.0020751953125,0.99969482421875,2.444915771484375,-4.000091552734375,2.82623291015625,1890549.4505494505,95098021.97802198,36595750.91575091,70.09482,1.0,1.0,4.0,1.0,1.0,40.0,,0 days 00:00:00.001000
2023-11-16 11:42:50.401,1.4566671,-3.7571816,0.24687366,0.63763773,1.0126709,-3.8708124,0.041874304,0.4097682,1.2169814,-4.038089,0.46955335,0.7288896,1.096937,-3.2491505,0.29724777,1.0811905,1.0527841,-3.475248,-0.010520442,0.88113993,793.36993,246.99634,793.7729,781.685,676.52014,0.0,0.0,-0.091064453125,0.0020751953125,0.99969482421875,2.444915771484375,-4.000091552734375,2.82623291015625,1890549.4505494505,95098021.97802198,36595750.91575091,70.09482,1.0,1.0,4.0,1.0,1.0,40.0,,0 days 00:00:00
2023-11-16 11:42:50.402,1.4566671,-3.7571816,0.24687366,0.63763773,1.0126709,-3.8708124,0.041874304,0.4097682,1.2169814,-4.038089,0.46955335,0.7288896,1.096937,-3.2491505,0.29724777,1.0811905,1.0527841,-3.475248,-0.010520442,0.88113993,807.0696,252.63736,796.5934,818.3516,678.1319,0.0,0.0,-0.091064453125,0.0020751953125,0.99969482421875,2.444915771484375,-4.000091552734375,2.82623291015625,1890549.4505494505,95098021.97802198,36595750.91575091,70.09482,1.0,1.0,4.0,1.0,1.0,40.0,,0 days 00:00:00.001000
2023-11-16 11:42:50.402,1.4566671,-3.7571816,0.24687366,0.63763773,1.0126709,-3.8708124,0.041874304,0.4097682,1.2169814,-4.038089,0.46955335,0.7288896,1.096937,-3.2491505,0.29724777,1.0811905,1.0527841,-3.475248,-0.010520442,0.88113993,798.60803,0.0,811.0989,839.304,824.3956,0.0,0.0,-0.091064453125,0.0020751953125,0.99969482421875,2.444915771484375,-4.000091552734375,2.82623291015625,1890549.4505494505,95098021.97802198,36595750.91575091,70.09482,1.0,1.0,4.0,1.0,1.0,40.0,,0 days 00:00:00
2023-11-16 11:42:50.403,1.4566671,-3.7571816,0.24687366,0.63763773,1.0126709,-3.8708124,0.041874304,0.4097682,1.2169814,-4.038089,0.46955335,0.7288896,1.096937,-3.2491505,0.29724777,1.0811905,1.0527841,-3.475248,-0.010520442,0.88113993,785.31134,70.10989,806.26373,776.04395,759.12085,0.0,0.0,-0.091064453125,0.0020751953125,0.99969482421875,2.444915771484375,-4.000091552734375,2.82623291015625,1890549.4505494505,95098021.97802198,36595750.91575091,70.09482,1.0,1.0,4.0,1.0,1.0,40.0,,0 days 00:00:00.001000
2023-11-16 11:42:50.403,1.4566671,-3.7571816,0.24687366,0.63763773,1.0126709,-3.8708124,0.041874304,0.4097682,1.2169814,-4.038089,0.46955335,0.7288896,1.096937,-3.2491505,0.29724777,1.0811905,1.0527841,-3.475248,-0.010520442,0.88113993,799.81683,454.90842,794.57874,761.13556,653.5531,0.0,0.0,-0.091064453125,0.0020751953125,0.99969482421875,2.444915771484375,-4.000091552734375,2.82623291015625,1890549.4505494505,95098021.97802198,36595750.91575091,70.09482,1.0,1.0,4.0,1.0,1.0,40.0,,0 days 00:00:00
2023-11-16 11:42:50.429,1.4566671,-3.7571816,0.24687366,0.63763773,1.0126709,-3.8708124,0.041874304,0.4097682,1.2169814,-4.038089,0.46955335,0.7288896,1.096937,-3.2491505,0.29724777,1.0811905,1.0527841,-3.475248,-0.010520442,0.88113993,818.3516,317.50916,796.99634,776.4469,766.3736,0.0,0.0,-0.09100341796875,0.00689697265625,0.99346923828125,4.38140869140625,-4.85992431640625,0.46356201171875,1892161.172161172,95173772.89377289,36594945.05494505,70.09482,1.0,1.0,4.0,1.0,1.0,40.0,,0 days 00:00:00.026000
2023-11-16 11:42:50.430,1.4566671,-3.7571816,0.2523294,0.63763773,1.0126709,-3.8708124,-0.0076565114,0.4097682,1.2169814,-4.038089,0.4763554,0.7288896,1.096937,-3.2491505,0.30463934,1.0811905,1.0527841,-3.475248,-0.029378686,0.88113993,793.36993,57.61905,805.8608,793.36993,806.26373,0.0,0.0,-0.09100341796875,0.00689697265625,0.99346923828125,4.38140869140625,-4.85992431640625,0.46356201171875,1892161.172161172,95173772.89377289,36594945.05494505,70.09482,1.0,1.0,4.0,1.0,1.0,40.0,,0 days 00:00:00.001000
2023-11-16 11:42:50.432,1.4566671,-3.7571816,0.2523294,0.63763773,1.0126709,-3.8708124,-0.0076565114,0.4097682,1.2169814,-4.038089,0.4763554,0.7288896,1.096937,-3.2491505,0.30463934,1.0811905,1.0527841,-3.475248,-0.029378686,0.88113993,783.2967,410.989,801.02563,770.80585,822.381,0.0,0.0,-0.09100341796875,0.00689697265625,0.99346923828125,4.38140869140625,-4.85992431640625,0.46356201171875,1892161.172161172,95173772.89377289,36594945.05494505,70.09482,1.0,1.0,4.0,1.0,1.0,40.0,,0 days 00:00:00.002000
2023-11-16 11:42:50.432,1.4566671,-3.7571816,0.2523294,0.63763773,1.0126709,-3.8708124,-0.0076565114,0.4097682,1.2169814,-4.038089,0.4763554,0.7288896,1.096937,-3.2491505,0.30463934,1.0811905,1.0527841,-3.475248,-0.029378686,0.88113993,804.65204,654.7619,805.8608,778.46155,832.8571,0.0,0.0,-0.09100341796875,0.00689697265625,0.99346923828125,4.38140869140625,-4.85992431640625,0.46356201171875,1892161.172161172,95173772.89377289,36594945.05494505,70.09482,1.0,1.0,4.0,1.0,1.0,40.0,,0 days 00:00:00
2023-11-16 11:42:50.432,1.4566671,-3.7571816,0.2523294,0.63763773,1.0126709,-3.8708124,-0.0076565114,0.4097682,1.2169814,-4.038089,0.4763554,0.7288896,1.096937,-3.2491505,0.30463934,1.0811905,1.0527841,-3.475248,-0.029378686,0.88113993,828.022,437.98535,810.293,810.696,778.86444,0.0,0.0,-0.09100341796875,0.00689697265625,0.99346923828125,4.38140869140625,-4.85992431640625,0.46356201171875,1892161.172161172,95173772.89377289,36594945.05494505,70.09482,1.0,1.0,4.0,1.0,1.0,40.0,,0 days 00:00:00
2023-11-16 11:42:50.433,1.4566671,-3.7571816,0.2523294,0.63763773,1.0126709,-3.8708124,-0.0076565114,0.4097682,1.2169814,-4.038089,0.4763554,0.7288896,1.096937,-3.2491505,0.30463934,1.0811905,1.0527841,-3.475248,-0.029378686,0.88113993,809.89014,189.78021,807.8755,787.326,792.5641,0.0,0.0,-0.09100341796875,0.00689697265625,0.99346923828125,4.38140869140625,-4.85992431640625,0.46356201171875,1892161.172161172,95173772.89377289,36594945.05494505,70.09482,1.0,1.0,4.0,1.0,1.0,40.0,,0 days 00:00:00.001000
2023-11-16 11:42:50.433,1.4566671,-3.7571816,0.2523294,0.63763773,1.0126709,-3.8708124,-0.0076565114,0.4097682,1.2169814,-4.038089,0.4763554,0.7288896,1.096937,-3.2491505,0.30463934,1.0811905,1.0527841,-3.475248,-0.029378686,0.88113993,817.9487,140.21979,804.65204,779.2674,776.8498,0.0,0.0,-0.09100341796875,0.00689697265625,0.99346923828125,4.38140869140625,-4.85992431640625,0.46356201171875,1892161.172161172,95173772.89377289,36594945.05494505,70.09482,1.0,1.0,4.0,1.0,1.0,40.0,,0 days 00:00:00
2023-11-16 11:42:50.433,1.4566671,-3.7571816,0.2523294,0.63763773,1.0126709,-3.8708124,-0.0076565114,0.4097682,1.2169814,-4.038089,0.4763554,0.7288896,1.096937,-3.2491505,0.30463934,1.0811905,1.0527841,-3.475248,-0.029378686,0.88113993,827.2161,438.38828,800.6227,788.5348,770.40295,0.0,0.0,-0.09100341796875,0.00689697265625,0.99346923828125,4.38140869140625,-4.85992431640625,0.46356201171875,1892161.172161172,95173772.89377289,36594945.05494505,70.09482,1.0,1.0,4.0,1.0,1.0,40.0,,0 days 00:00:00
2023-11-16 11:42:50.434,1.4566671,-3.7571816,0.2523294,0.63763773,1.0126709,-3.8708124,-0.0076565114,0.4097682,1.2169814,-4.038089,0.4763554,0.7288896,1.096937,-3.2491505,0.30463934,1.0811905,1.0527841,-3.475248,-0.029378686,0.88113993,825.6044,522.6007,807.0696,814.3223,811.9048,0.0,0.0,-0.09100341796875,0.00689697265625,0.99346923828125,4.38140869140625,-4.85992431640625,0.46356201171875,1892161.172161172,95173772.89377289,36594945.05494505,70.09482,1.0,1.0,4.0,1.0,1.0,40.0,,0 days 00:00:00.001000
2023-11-16 11:42:50.434,1.4566671,-3.7571816,0.2523294,0.63763773,1.0126709,-3.8708124,-0.0076565114,0.4097682,1.2169814,-4.038089,0.4763554,0.7288896,1.096937,-3.2491505,0.30463934,1.0811905,1.0527841,-3.475248,-0.029378686,0.88113993,812.3077,359.81686,809.4872,839.304,850.18317,0.0,0.0,-0.09100341796875,0.00689697265625,0.99346923828125,4.38140869140625,-4.85992431640625,0.46356201171875,1892161.172161172,95173772.89377289,36594945.05494505,70.09482,1.0,1.0,4.0,1.0,1.0,40.0,,0 days 00:00:00
2023-11-16 11:42:50.434,1.4566671,-3.7571816,0.2523294,0.63763773,1.0126709,-3.8708124,-0.0076565114,0.4097682,1.2169814,-4.038089,0.4763554,0.7288896,1.096937,-3.2491505,0.30463934,1.0811905,1.0527841,-3.475248,-0.029378686,0.88113993,790.14655,601.5751,805.05493,786.9231,815.5311,0.0,0.0,-0.09100341796875,0.00689697265625,0.99346923828125,4.38140869140625,-4.85992431640625,0.46356201171875,1892161.172161172,95173772.89377289,36594945.05494505,70.09482,1.0,1.0,4.0,1.0,1.0,40.0,,0 days 00:00:00
2023-11-16 11:42:50.435,1.4566671,-3.7571816,0.2523294,0.63763773,1.0126709,-3.8708124,-0.0076565114,0.4097682,1.2169814,-4.038089,0.4763554,0.7288896,1.096937,-3.2491505,0.30463934,1.0811905,1.0527841,-3.475248,-0.029378686,0.88113993,832.0513,891.28204,809.89014,809.4872,731.7216,0.0,0.0,-0.09100341796875,0.00689697265625,0.99346923828125,4.38140869140625,-4.85992431640625,0.46356201171875,1892161.172161172,95173772.89377289,36594945.05494505,70.09482,1.0,1.0,4.0,1.0,1.0,40.0,,0 days 00:00:00.001000
2023-11-16 11:42:50.461,1.4566671,-3.7571816,0.2523294,0.63763773,1.0126709,-3.8708124,-0.0076565114,0.4097682,1.2169814,-4.038089,0.4763554,0.7288896,1.096937,-3.2491505,0.30463934,1.0811905,1.0527841,-3.475248,-0.029378686,0.88113993,869.5238,483.11356,813.5165,839.304,930.7692,0.0,0.0,-0.083984375,0.01318359375,0.99969482421875,3.96270751953125,-6.998291015625,-1.48040771484375,1892161.172161172,95173772.89377289,36594945.05494505,70.09482,1.0,1.0,4.0,1.0,1.0,40.0,,0 days 00:00:00.026000
2023-11-16 11:42:50.461,1.4566671,-3.7571816,0.2523294,0.63763773,1.0126709,-3.8708124,-0.0076565114,0.4097682,1.2169814,-4.038089,0.4763554,0.7288896,1.096937,-3.2491505,0.30463934,1.0811905,1.0527841,-3.475248,-0.029378686,0.88113993,834.0659,0.0,808.68134,793.7729,1216.4469,0.0,0.0,-0.083984375,0.01318359375,0.99969482421875,3.96270751953125,-6.998291015625,-1.48040771484375,1892161.172161172,95173772.89377289,36594945.05494505,70.09482,1.0,1.0,4.0,1.0,1.0,40.0,,0 days 00:00:00
2023-11-16 11:42:50.462,1.4566671,-3.7571816,0.2523294,0.63763773,1.0126709,-3.8708124,-0.0076565114,0.4097682,1.2169814,-4.038089,0.4763554,0.7288896,1.096937,-3.2491505,0.30463934,1.0811905,1.0527841,-3.475248,-0.029378686,0.88113993,817.9487,430.32968,799.011,765.56775,958.1685,0.0,0.0,-0.083984375,0.01318359375,0.99969482421875,3.96270751953125,-6.998291015625,-1.48040771484375,1892161.172161172,95173772.89377289,36594945.05494505,70.09482,1.0,1.0,4.0,1.0,1.0,40.0,,0 days 00:00:00.001000
2023-11-16 11:42:50.462,1.4566671,-3.7571816,0.2523294,0.63763773,1.0126709,-3.8708124,-0.0076565114,0.4097682,1.2169814,-4.038089,0.4763554,0.7288896,1.096937,-3.2491505,0.30463934,1.0811905,1.0527841,-3.475248,-0.029378686,0.88113993,817.1429,900.14655,796.1905,770.0,732.9304,0.0,0.0,-0.083984375,0.01318359375,0.99969482421875,3.96270751953125,-6.998291015625,-1.48040771484375,1892161.172161172,95173772.89377289,36594945.05494505,70.09482,1.0,1.0,4.0,1.0,1.0,40.0,,0 days 00:00:00
2023-11-16 11:42:50.463,1.4566671,-3.7571816,0.2523294,0.63763773,1.0126709,-3.8708124,-0.0076565114,0.4097682,1.2169814,-4.038089,0.4763554,0.7288896,1.096937,-3.2491505,0.30463934,1.0811905,1.0527841,-3.475248,-0.029378686,0.88113993,805.4579,743.00366,805.8608,799.41394,780.87915,0.0,0.0,-0.083984375,0.01318359375,0.99969482421875,3.96270751953125,-6.998291015625,-1.48040771484375,1892161.172161172,95173772.89377289,36594945.05494505,70.09482,1.0,1.0,4.0,1.0,1.0,40.0,,0 days 00:00:00.001000
2023-11-16 11:42:50.463,1.4566671,-3.7571816,0.2523294,0.63763773,1.0126709,-3.8708124,-0.0076565114,0.4097682,1.2169814,-4.038089,0.4763554,0.7288896,1.096937,-3.2491505,0.30463934,1.0811905,1.0527841,-3.475248,-0.029378686,0.88113993,827.619,653.1502,809.89014,815.5311,781.685,0.0,0.0,-0.083984375,0.01318359375,0.99969482421875,3.96270751953125,-6.998291015625,-1.48040771484375,1892161.172161172,95173772.89377289,36594945.05494505,70.09482,1.0,1.0,4.0,1.0,1.0,40.0,,0 days 00:00:00
2023-11-16 11:42:50.463,1.4566671,-3.7571816,0.2523294,0.63763773,1.0126709,-3.8708124,-0.0076565114,0.4097682,1.2169814,-4.038089,0.4763554,0.7288896,1.096937,-3.2491505,0.30463934,1.0811905,1.0527841,-3.475248,-0.029378686,0.88113993,831.2454,641.06226,807.8755,806.26373,792.96704,0.0,0.0,-0.083984375,0.01318359375,0.99969482421875,3.96270751953125,-6.998291015625,-1.48040771484375,1892161.172161172,95173772.89377289,36594945.05494505,70.09482,1.0,1.0,4.0,1.0,1.0,40.0,,0 days 00:00:00
2023-11-16 11:42:50.464,1.4566671,-3.7571816,0.2523294,0.63763773,1.0126709,-3.8708124,-0.0076565114,0.4097682,1.2169814,-4.038089,0.4763554,0.7288896,1.096937,-3.2491505,0.30463934,1.0811905,1.0527841,-3.475248,-0.029378686,0.88113993,828.022,573.36993,803.8461,802.6374,808.2784,0.0,0.0,-0.083984375,0.01318359375,0.99969482421875,3.96270751953125,-6.998291015625,-1.48040771484375,1892161.172161172,95173772.89377289,36594945.05494505,70.09482,1.0,1.0,4.0,1.0,1.0,40.0,,0 days 00:00:00.001000
2023-11-16 11:42:50.464,1.4566671,-3.7571816,0.2523294,0.63763773,1.0126709,-3.8708124,-0.0076565114,0.4097682,1.2169814,-4.038089,0.4763554,0.7288896,1.096937,-3.2491505,0.30463934,1.0811905,1.0527841,-3.475248,-0.029378686,0.88113993,855.82416,238.93773,807.8755,859.85345,985.9707,0.0,0.0,-0.083984375,0.01318359375,0.99969482421875,3.96270751953125,-6.998291015625,-1.48040771484375,1892161.172161172,95173772.89377289,36594945.05494505,70.09482,1.0,1.0,4.0,1.0,1.0,40.0,,0 days 00:00:00
2023-11-16 11:42:50.464,1.4566671,-3.7571816,0.2523294,0.63763773,1.0126709,-3.8708124,-0.0076565114,0.4097682,1.2169814,-4.038089,0.4763554,0.7288896,1.096937,-3.2491505,0.30463934,1.0811905,1.0527841,-3.475248,-0.029378686,0.88113993,830.4396,598.3516,804.65204,823.1868,941.2454,0.0,0.0,-0.083984375,0.01318359375,0.99969482421875,3.96270751953125,-6.998291015625,-1.48040771484375,1892161.172161172,95173772.89377289,36594945.05494505,70.09482,1.0,1.0,4.0,1.0,1.0,40.0,,0 days 00:00:00
2023-11-16 11:42:50.465,1.4566671,-3.7571816,0.2523294,0.63763773,1.0126709,-3.8708124,-0.0076565114,0.4097682,1.2169814,-4.038089,0.4763554,0.7288896,1.096937,-3.2491505,0.30463934,1.0811905,1.0527841,-3.475248,-0.029378686,0.88113993,776.8498,1078.2417,799.41394,765.9707,759.5238,0.0,0.0,-0.083984375,0.01318359375,0.99969482421875,3.96270751953125,-6.998291015625,-1.48040771484375,1892161.172161172,95173772.89377289,36594945.05494505,70.09482,1.0,1.0,4.0,1.0,1.0,40.0,,0 days 00:00:00.001000
2023-11-16 11:42:50.465,1.4566671,-3.7571816,0.2523294,0.63763773,1.0126709,-3.8708124,-0.0076565114,0.4097682,1.2169814,-4.038089,0.4763554,0.7288896,1.096937,-3.2491505,0.30463934,1.0811905,1.0527841,-3.475248,-0.029378686,0.88113993,792.96704,774.83514,807.0696,822.381,828.022,0.0,0.0,-0.083984375,0.01318359375,0.99969482421875,3.96270751953125,-6.998291015625,-1.48040771484375,1892161.172161172,95173772.89377289,36594945.05494505,70.09482,1.0,1.0,4.0,1.0,1.0,40.0,,0 days 00:00:00
2023-11-16 11:42:50.529,1.4566671,-3.7571816,0.2523294,0.63763773,1.0126709,-3.8708124,-0.0076565114,0.4097682,1.2169814,-4.038089,0.4763554,0.7288896,1.096937,-3.2491505,0.30463934,1.0811905,1.0527841,-3.475248,-0.029378686,0.88113993,811.9048,664.83514,809.89014,834.0659,774.83514,0.0,0.0,-0.083984375,0.01318359375,0.99969482421875,3.96270751953125,-6.998291015625,-1.48040771484375,1888131.868131868,95155238.09523807,36623150.18315018,70.09482,1.0,1.0,4.0,1.0,1.0,40.0,,0 days 00:00:00.064000
2023-11-16 11:42:50.530,1.4566671,-3.7571816,0.2523294,0.63763773,1.0126709,-3.8708124,-0.0076565114,0.4097682,1.2169814,-4.038089,0.4763554,0.7288896,1.096937,-3.2491505,0.30463934,1.0811905,1.0527841,-3.475248,-0.029378686,0.88113993,826.0073,998.0586,805.4579,810.696,718.022,0.0,0.0,-0.083984375,0.01318359375,0.99969482421875,3.96270751953125,-6.998291015625,-1.48040771484375,1888131.868131868,95155238.09523807,36623150.18315018,70.09482,1.0,1.0,4.0,1.0,1.0,40.0,,0 days 00:00:00.001000
2023-11-16 11:42:50.530,1.4566671,-3.7571816,0.2523294,0.63763773,1.0126709,-3.8708124,-0.0076565114,0.4097682,1.2169814,-4.038089,0.4763554,0.7288896,1.096937,-3.2491505,0.30463934,1.0811905,1.0527841,-3.475248,-0.029378686,0.88113993,845.34796,1049.6337,809.89014,815.5311,765.16486,0.0,0.0,-0.083984375,0.01318359375,0.99969482421875,3.96270751953125,-6.998291015625,-1.48040771484375,1888131.868131868,95155238.09523807,36623150.18315018,70.09482,1.0,1.0,4.0,1.0,1.0,40.0,,0 days 00:00:00
2023-11-16 11:42:50.533,1.4566671,-3.7571816,0.2523294,0.63763773,1.0126709,-3.8708124,-0.0076565114,0.4097682,1.2169814,-4.038089,0.4763554,0.7288896,1.096937,-3.2491505,0.30463934,1.0811905,1.0527841,-3.475248,-0.029378686,0.88113993,845.34796,1049.6337,809.89014,815.5311,765.16486,0.0,0.0,-0.083984375,0.01318359375,0.99969482421875,3.96270751953125,-6.998291015625,-1.48040771484375,1888131.868131868,95155238.09523807,36623150.18315018,70.09482,1.0,1.0,4.0,1.0,1.0,40.0,/muse/elements/jaw_clench,0 days 00:00:00.003000
2023-11-16 11:42:50.531,1.4566671,-3.7571816,0.24644765,0.6470417,1.0126709,-3.8708124,-0.052686278,0.36733416,1.2169814,-4.038089,0.47855255,0.72759104,1.096937,-3.2491505,0.30241382,1.0648445,1.0527841,-3.475248,-0.052068368,0.8790875,817.9487,563.2967,813.1135,821.5751,772.4176,0.0,0.0,-0.083984375,0.01318359375,0.99969482421875,3.96270751953125,-6.998291015625,-1.48040771484375,1888131.868131868,95155238.09523807,36623150.18315018,70.09482,1.0,1.0,4.0,1.0,1.0,40.0,/muse/elements/jaw_clench,-1 days +23:59:59.998000
2023-11-16 11:42:50.534,1.4566671,-3.7571816,0.24644765,0.6470417,1.0126709,-3.8708124,-0.052686278,0.36733416,1.2169814,-4.038089,0.47855255,0.72759104,1.096937,-3.2491505,0.30241382,1.0648445,1.0527841,-3.475248,-0.052068368,0.8790875,805.4579,411.39194,808.2784,832.0513,813.1135,0.0,0.0,-0.083984375,0.01318359375,0.99969482421875,3.96270751953125,-6.998291015625,-1.48040771484375,1888131.868131868,95155238.09523807,36623150.18315018,70.09482,1.0,1.0,4.0,1.0,1.0,40.0,/muse/elements/jaw_clench,0 days 00:00:00.003000
2023-11-16 11:42:50.534,1.4566671,-3.7571816,0.24644765,0.6470417,1.0126709,-3.8708124,-0.052686278,0.36733416,1.2169814,-4.038089,0.47855255,0.72759104,1.096937,-3.2491505,0.30241382,1.0648445,1.0527841,-3.475248,-0.052068368,0.8790875,815.5311,564.5055,807.47253,814.7253,795.78754,0.0,0.0,-0.083984375,0.01318359375,0.99969482421875,3.96270751953125,-6.998291015625,-1.48040771484375,1888131.868131868,95155238.09523807,36623150.18315018,70.09482,1.0,1.0,4.0,1.0,1.0,40.0,/muse/elements/jaw_clench,0 days 00:00:00
2023-11-16 11:42:50.534,1.4566671,-3.7571816,0.24644765,0.6470417,1.0126709,-3.8708124,-0.052686278,0.36733416,1.2169814,-4.038089,0.47855255,0.72759104,1.096937,-3.2491505,0.30241382,1.0648445,1.0527841,-3.475248,-0.052068368,0.8790875,847.76556,506.48352,801.4286,771.6117,730.10986,0.0,0.0,-0.083984375,0.01318359375,0.99969482421875,3.96270751953125,-6.998291015625,-1.48040771484375,1888131.868131868,95155238.09523807,36623150.18315018,70.09482,1.0,1.0,4.0,1.0,1.0,40.0,/muse/elements/jaw_clench,0 days 00:00:00
2023-11-16 11:42:50.535,1.4566671,-3.7571816,0.24644765,0.6470417,1.0126709,-3.8708124,-0.052686278,0.36733416,1.2169814,-4.038089,0.47855255,0.72759104,1.096937,-3.2491505,0.30241382,1.0648445,1.0527841,-3.475248,-0.052068368,0.8790875,823.9927,250.62271,807.47253,803.44324,848.1685,0.0,0.0,-0.083984375,0.01318359375,0.99969482421875,3.96270751953125,-6.998291015625,-1.48040771484375,1888131.868131868,95155238.09523807,36623150.18315018,70.09482,1.0,1.0,4.0,1.0,1.0,40.0,/muse/elements/jaw_clench,0 days 00:00:00.001000
2023-11-16 11:42:50.535,1.4566671,-3.7571816,0.24644765,0.6470417,1.0126709,-3.8708124,-0.052686278,0.36733416,1.2169814,-4.038089,0.47855255,0.72759104,1.096937,-3.2491505,0.30241382,1.0648445,1.0527841,-3.475248,-0.052068368,0.8790875,806.26373,37.875458,817.1429,821.1722,993.22345,0.0,0.0,-0.083984375,0.01318359375,0.99969482421875,3.96270751953125,-6.998291015625,-1.48040771484375,1888131.868131868,95155238.09523807,36623150.18315018,70.09482,1.0,1.0,4.0,1.0,1.0,40.0,/muse/elements/jaw_clench,0 days 00:00:00
2023-11-16 11:42:50.536,1.4566671,-3.7571816,0.24644765,0.6470417,1.0126709,-3.8708124,-0.052686278,0.36733416,1.2169814,-4.038089,0.47855255,0.72759104,1.096937,-3.2491505,0.30241382,1.0648445,1.0527841,-3.475248,-0.052068368,0.8790875,830.84247,380.76923,802.23444,795.78754,874.7619,0.0,0.0,-0.083984375,0.01318359375,0.99969482421875,3.96270751953125,-6.998291015625,-1.48040771484375,1888131.868131868,95155238.09523807,36623150.18315018,70.09482,1.0,1.0,4.0,1.0,1.0,40.0,/muse/elements/jaw_clench,0 days 00:00:00.001000
2023-11-16 11:42:50.536,1.4566671,-3.7571816,0.24644765,0.6470417,1.0126709,-3.8708124,-0.052686278,0.36733416,1.2169814,-4.038089,0.47855255,0.72759104,1.096937,-3.2491505,0.30241382,1.0648445,1.0527841,-3.475248,-0.052068368,0.8790875,805.05493,610.84247,803.8461,835.2747,755.89746,0.0,0.0,-0.083984375,0.01318359375,0.99969482421875,3.96270751953125,-6.998291015625,-1.48040771484375,1888131.868131868,95155238.09523807,36623150.18315018,70.09482,1.0,1.0,4.0,1.0,1.0,40.0,/muse/elements/jaw_clench,0 days 00:00:00
2023-11-16 11:42:50.537,1.4566671,-3.7571816,0.24644765,0.6470417,1.0126709,-3.8708124,-0.052686278,0.36733416,1.2169814,-4.038089,0.47855255,0.72759104,1.096937,-3.2491505,0.30241382,1.0648445,1.0527841,-3.475248,-0.052068368,0.8790875,817.5458,299.7802,811.0989,844.1392,838.0952,0.0,0.0,-0.083984375,0.01318359375,0.99969482421875,3.96270751953125,-6.998291015625,-1.48040771484375,1888131.868131868,95155238.09523807,36623150.18315018,70.09482,1.0,1.0,4.0,1.0,1.0,40.0,/muse/elements/jaw_clench,0 days 00:00:00.001000
2023-11-16 11:42:50.559,1.4566671,-3.7571816,0.24644765,0.6470417,1.0126709,-3.8708124,-0.052686278,0.36733416,1.2169814,-4.038089,0.47855255,0.72759104,1.096937,-3.2491505,0.30241382,1.0648445,1.0527841,-3.475248,-0.052068368,0.8790875,803.44324,286.0806,794.57874,774.83514,853.4066,0.0,0.0,-0.06878662109375,0.01165771484375,1.01800537109375,3.551483154296875,-7.94036865234375,-0.590667724609375,1888131.868131868,95155238.09523807,36623150.18315018,70.09482,1.0,1.0,4.0,1.0,1.0,40.0,/muse/elements/jaw_clench,0 days 00:00:00.022000
2023-11-16 11:42:50.560,1.4566671,-3.7571816,0.24644765,0.6470417,1.0126709,-3.8708124,-0.052686278,0.36733416,1.2169814,-4.038089,0.47855255,0.72759104,1.096937,-3.2491505,0.30241382,1.0648445,1.0527841,-3.475248,-0.052068368,0.8790875,796.1905,804.65204,792.1612,761.53845,711.1722,0.0,0.0,-0.06878662109375,0.01165771484375,1.01800537109375,3.551483154296875,-7.94036865234375,-0.590667724609375,1888131.868131868,95155238.09523807,36623150.18315018,70.09482,1.0,1.0,4.0,1.0,1.0,40.0,/muse/elements/jaw_clench,0 days 00:00:00.001000
2023-11-16 11:42:50.560,1.4566671,-3.7571816,0.24644765,0.6470417,1.0126709,-3.8708124,-0.052686278,0.36733416,1.2169814,-4.038089,0.47855255,0.72759104,1.096937,-3.2491505,0.30241382,1.0648445,1.0527841,-3.475248,-0.052068368,0.8790875,800.2198,838.49817,809.4872,800.6227,746.63007,0.0,0.0,-0.06878662109375,0.01165771484375,1.01800537109375,3.551483154296875,-7.94036865234375,-0.590667724609375,1888131.868131868,95155238.09523807,36623150.18315018,70.09482,1.0,1.0,4.0,1.0,1.0,40.0,/muse/elements/jaw_clench,0 days 00:00:00
2023-11-16 11:42:50.561,1.4566671,-3.7571816,0.24644765,0.6470417,1.0126709,-3.8708124,-0.052686278,0.36733416,1.2169814,-4.038089,0.47855255,0.72759104,1.096937,-3.2491505,0.30241382,1.0648445,1.0527841,-3.475248,-0.052068368,0.8790875,800.6227,627.3626,811.50183,818.7546,821.5751,0.0,0.0,-0.06878662109375,0.01165771484375,1.01800537109375,3.551483154296875,-7.94036865234375,-0.590667724609375,1888131.868131868,95155238.09523807,36623150.18315018,70.09482,1.0,1.0,4.0,1.0,1.0,40.0,/muse/elements/jaw_clench,0 days 00:00:00.001000
2023-11-16 11:42:50.561,1.4566671,-3.7571816,0.24644765,0.6470417,1.0126709,-3.8708124,-0.052686278,0.36733416,1.2169814,-4.038089,0.47855255,0.72759104,1.096937,-3.2491505,0.30241382,1.0648445,1.0527841,-3.475248,-0.052068368,0.8790875,788.93774,695.8608,805.4579,794.9817,834.4689,0.0,0.0,-0.06878662109375,0.01165771484375,1.01800537109375,3.551483154296875,-7.94036865234375,-0.590667724609375,1888131.868131868,95155238.09523807,36623150.18315018,70.09482,1.0,1.0,4.0,1.0,1.0,40.0,/muse/elements/jaw_clench,0 days 00:00:00
2023-11-16 11:42:50.561,1.4566671,-3.7571816,0.24644765,0.6470417,1.0126709,-3.8708124,-0.052686278,0.36733416,1.2169814,-4.038089,0.47855255,0.72759104,1.096937,-3.2491505,0.30241382,1.0648445,1.0527841,-3.475248,-0.052068368,0.8790875,784.10254,631.79486,816.7399,820.7692,890.87915,0.0,0.0,-0.06878662109375,0.01165771484375,1.01800537109375,3.551483154296875,-7.94036865234375,-0.590667724609375,1888131.868131868,95155238.09523807,36623150.18315018,70.09482,1.0,1.0,4.0,1.0,1.0,40.0,/muse/elements/jaw_clench,0 days 00:00:00
2023-11-16 11:42:50.562,1.4566671,-3.7571816,0.24644765,0.6470417,1.0126709,-3.8708124,-0.052686278,0.36733416,1.2169814,-4.038089,0.47855255,0.72759104,1.096937,-3.2491505,0.30241382,1.0648445,1.0527841,-3.475248,-0.052068368,0.8790875,807.47253,532.674,821.1722,809.89014,918.68134,0.0,0.0,-0.06878662109375,0.01165771484375,1.01800537109375,3.551483154296875,-7.94036865234375,-0.590667724609375,1888131.868131868,95155238.09523807,36623150.18315018,70.09482,1.0,1.0,4.0,1.0,1.0,40.0,/muse/elements/jaw_clench,0 days 00:00:00.001000
2023-11-16 11:42:50.562,1.4566671,-3.7571816,0.24644765,0.6470417,1.0126709,-3.8708124,-0.052686278,0.36733416,1.2169814,-4.038089,0.47855255,0.72759104,1.096937,-3.2491505,0.30241382,1.0648445,1.0527841,-3.475248,-0.052068368,0.8790875,803.44324,161.17216,815.5311,799.011,1161.2454,0.0,0.0,-0.06878662109375,0.01165771484375,1.01800537109375,3.551483154296875,-7.94036865234375,-0.590667724609375,1888131.868131868,95155238.09523807,36623150.18315018,70.09482,1.0,1.0,4.0,1.0,1.0,40.0,/muse/elements/jaw_clench,0 days 00:00:00
2023-11-16 11:42:50.563,1.4566671,-3.7571816,0.24644765,0.6470417,1.0126709,-3.8708124,-0.052686278,0.36733416,1.2169814,-4.038089,0.47855255,0.72759104,1.096937,-3.2491505,0.30241382,1.0648445,1.0527841,-3.475248,-0.052068368,0.8790875,794.57874,183.73627,809.0842,813.1135,1095.5677,0.0,0.0,-0.06878662109375,0.01165771484375,1.01800537109375,3.551483154296875,-7.94036865234375,-0.590667724609375,1888131.868131868,95155238.09523807,36623150.18315018,70.09482,1.0,1.0,4.0,1.0,1.0,40.0,/muse/elements/jaw_clench,0 days 00:00:00.001000
2023-11-16 11:42:50.563,1.4566671,-3.7571816,0.24644765,0.6470417,1.0126709,-3.8708124,-0.052686278,0.36733416,1.2169814,-4.038089,0.47855255,0.72759104,1.096937,-3.2491505,0.30241382,1.0648445,1.0527841,-3.475248,-0.052068368,0.8790875,778.0586,819.5604,804.2491,796.1905,745.82416,0.0,0.0,-0.06878662109375,0.01165771484375,1.01800537109375,3.551483154296875,-7.94036865234375,-0.590667724609375,1888131.868131868,95155238.09523807,36623150.18315018,70.09482,1.0,1.0,4.0,1.0,1.0,40.0,/muse/elements/jaw_clench,0 days 00:00:00
2023-11-16 11:42:50.563,1.4566671,-3.7571816,0.24644765,0.6470417,1.0126709,-3.8708124,-0.052686278,0.36733416,1.2169814,-4.038089,0.47855255,0.72759104,1.096937,-3.2491505,0.30241382,1.0648445,1.0527841,-3.475248,-0.052068368,0.8790875,788.5348,736.55676,807.8755,787.72894,767.98535,0.0,0.0,-0.06878662109375,0.01165771484375,1.01800537109375,3.551483154296875,-7.94036865234375,-0.590667724609375,1888131.868131868,95155238.09523807,36623150.18315018,70.09482,1.0,1.0,4.0,1.0,1.0,40.0,/muse/elements/jaw_clench,0 days 00:00:00
2023-11-16 11:42:50.564,1.4566671,-3.7571816,0.24644765,0.6470417,1.0126709,-3.8708124,-0.052686278,0.36733416,1.2169814,-4.038089,0.47855255,0.72759104,1.096937,-3.2491505,0.30241382,1.0648445,1.0527841,-3.475248,-0.052068368,0.8790875,808.68134,600.3663,803.44324,801.8315,767.5824,0.0,0.0,-0.06878662109375,0.01165771484375,1.01800537109375,3.551483154296875,-7.94036865234375,-0.590667724609375,1888131.868131868,95155238.09523807,36623150.18315018,70.09482,1.0,1.0,4.0,1.0,1.0,40.0,/muse/elements/jaw_clench,0 days 00:00:00.001000
2023-11-16 11:42:50.620,1.4566671,-3.7571816,0.24644765,0.6470417,1.0126709,-3.8708124,-0.052686278,0.36733416,1.2169814,-4.038089,0.47855255,0.72759104,1.096937,-3.2491505,0.30241382,1.0648445,1.0527841,-3.475248,-0.052068368,0.8790875,792.96704,792.96704,803.0403,805.05493,712.7839,0.0,0.0,-0.08807373046875,0.00830078125,1.004638671875,2.998199462890625,-5.81695556640625,1.3458251953125,1892161.172161172,95219706.95970696,36658608.058608055,70.09482,1.0,1.0,4.0,1.0,1.0,40.0,/muse/elements/jaw_clench,0 days 00:00:00.056000
2023-11-16 11:42:50.621,1.4566671,-3.7571816,0.24644765,0.6470417,1.0126709,-3.8708124,-0.052686278,0.36733416,1.2169814,-4.038089,0.47855255,0.72759104,1.096937,-3.2491505,0.30241382,1.0648445,1.0527841,-3.475248,-0.052068368,0.8790875,780.4762,833.2601,810.696,788.1319,743.8095,0.0,0.0,-0.08807373046875,0.00830078125,1.004638671875,2.998199462890625,-5.81695556640625,1.3458251953125,1892161.172161172,95219706.95970696,36658608.058608055,70.09482,1.0,1.0,4.0,1.0,1.0,40.0,/muse/elements/jaw_clench,0 days 00:00:00.001000
2023-11-16 11:42:50.622,1.4566671,-3.7571816,0.24644765,0.6470417,1.0126709,-3.8708124,-0.052686278,0.36733416,1.2169814,-4.038089,0.47855255,0.72759104,1.096937,-3.2491505,0.30241382,1.0648445,1.0527841,-3.475248,-0.052068368,0.8790875,777.6557,609.6337,810.293,770.80585,759.92676,0.0,0.0,-0.08807373046875,0.00830078125,1.004638671875,2.998199462890625,-5.81695556640625,1.3458251953125,1892161.172161172,95219706.95970696,36658608.058608055,70.09482,1.0,1.0,4.0,1.0,1.0,40.0,/muse/elements/jaw_clench,0 days 00:00:00.001000
2023-11-16 11:42:50.622,1.4566671,-3.7571816,0.24644765,0.6470417,1.0126709,-3.8708124,-0.052686278,0.36733416,1.2169814,-4.038089,0.47855255,0.72759104,1.096937,-3.2491505,0.30241382,1.0648445,1.0527841,-3.475248,-0.052068368,0.8790875,772.4176,678.1319,805.8608,770.80585,827.619,0.0,0.0,-0.08807373046875,0.00830078125,1.004638671875,2.998199462890625,-5.81695556640625,1.3458251953125,1892161.172161172,95219706.95970696,36658608.058608055,70.09482,1.0,1.0,4.0,1.0,1.0,40.0,/muse/elements/jaw_clench,0 days 00:00:00
2023-11-16 11:42:50.623,1.4566671,-3.7571816,0.24644765,0.6470417,1.0126709,-3.8708124,-0.052686278,0.36733416,1.2169814,-4.038089,0.47855255,0.72759104,1.096937,-3.2491505,0.30241382,1.0648445,1.0527841,-3.475248,-0.052068368,0.8790875,778.86444,799.81683,806.6667,781.28204,806.26373,0.0,0.0,-0.08807373046875,0.00830078125,1.004638671875,2.998199462890625,-5.81695556640625,1.3458251953125,1892161.172161172,95219706.95970696,36658608.058608055,70.09482,1.0,1.0,4.0,1.0,1.0,40.0,/muse/elements/jaw_clench,0 days 00:00:00.001000
2023-11-16 11:42:50.623,1.4566671,-3.7571816,0.23257886,0.6551251,1.0126709,-3.8708124,-0.08505234,0.31605855,1.2169814,-4.038089,0.4382597,0.70760244,1.096937,-3.2491505,0.2925355,1.0496573,1.0527841,-3.475248,-0.070461914,0.88098323,778.0586,462.96704,811.9048,795.38464,693.0403,0.0,0.0,-0.08807373046875,0.00830078125,1.004638671875,2.998199462890625,-5.81695556640625,1.3458251953125,1892161.172161172,95219706.95970696,36658608.058608055,70.09482,1.0,1.0,4.0,1.0,1.0,40.0,/muse/elements/jaw_clench,0 days 00:00:00
2023-11-16 11:42:50.626,1.4566671,-3.7571816,0.23257886,0.6551251,1.0126709,-3.8708124,-0.08505234,0.31605855,1.2169814,-4.038089,0.4382597,0.70760244,1.096937,-3.2491505,0.2925355,1.0496573,1.0527841,-3.475248,-0.070461914,0.88098323,778.46155,132.16118,817.9487,816.337,944.4689,0.0,0.0,-0.08807373046875,0.00830078125,1.004638671875,2.998199462890625,-5.81695556640625,1.3458251953125,1892161.172161172,95219706.95970696,36658608.058608055,70.09482,1.0,1.0,4.0,1.0,1.0,40.0,/muse/elements/jaw_clench,0 days 00:00:00.003000
2023-11-16 11:42:50.627,1.4566671,-3.7571816,0.23257886,0.6551251,1.0126709,-3.8708124,-0.08505234,0.31605855,1.2169814,-4.038089,0.4382597,0.70760244,1.096937,-3.2491505,0.2925355,1.0496573,1.0527841,-3.475248,-0.070461914,0.88098323,776.4469,188.57143,815.12823,798.20514,1020.2198,0.0,0.0,-0.08807373046875,0.00830078125,1.004638671875,2.998199462890625,-5.81695556640625,1.3458251953125,1892161.172161172,95219706.95970696,36658608.058608055,70.09482,1.0,1.0,4.0,1.0,1.0,40.0,/muse/elements/jaw_clench,0 days 00:00:00.001000
2023-11-16 11:42:50.627,1.4566671,-3.7571816,0.23257886,0.6551251,1.0126709,-3.8708124,-0.08505234,0.31605855,1.2169814,-4.038089,0.4382597,0.70760244,1.096937,-3.2491505,0.2925355,1.0496573,1.0527841,-3.475248,-0.070461914,0.88098323,771.2088,677.326,807.0696,764.7619,765.16486,0.0,0.0,-0.08807373046875,0.00830078125,1.004638671875,2.998199462890625,-5.81695556640625,1.3458251953125,1892161.172161172,95219706.95970696,36658608.058608055,70.09482,1.0,1.0,4.0,1.0,1.0,40.0,/muse/elements/jaw_clench,0 days 00:00:00
2023-11-16 11:42:50.628,1.4566671,-3.7571816,0.23257886,0.6551251,1.0126709,-3.8708124,-0.08505234,0.31605855,1.2169814,-4.038089,0.4382597,0.70760244,1.096937,-3.2491505,0.2925355,1.0496573,1.0527841,-3.475248,-0.070461914,0.88098323,774.0293,533.8828,812.71063,783.69965,711.978,0.0,0.0,-0.08807373046875,0.00830078125,1.004638671875,2.998199462890625,-5.81695556640625,1.3458251953125,1892161.172161172,95219706.95970696,36658608.058608055,70.09482,1.0,1.0,4.0,1.0,1.0,40.0,/muse/elements/jaw_clench,0 days 00:00:00.001000
2023-11-16 11:42:50.628,1.4566671,-3.7571816,0.23257886,0.6551251,1.0126709,-3.8708124,-0.08505234,0.31605855,1.2169814,-4.038089,0.4382597,0.70760244,1.096937,-3.2491505,0.2925355,1.0496573,1.0527841,-3.475248,-0.070461914,0.88098323,784.5055,89.04762,822.381,817.9487,882.01465,0.0,0.0,-0.08807373046875,0.00830078125,1.004638671875,2.998199462890625,-5.81695556640625,1.3458251953125,1892161.172161172,95219706.95970696,36658608.058608055,70.09482,1.0,1.0,4.0,1.0,1.0,40.0,/muse/elements/jaw_clench,0 days 00:00:00
2023-11-16 11:42:50.629,1.4566671,-3.7571816,0.23257886,0.6551251,1.0126709,-3.8708124,-0.08505234,0.31605855,1.2169814,-4.038089,0.4382597,0.70760244,1.096937,-3.2491505,0.2925355,1.0496573,1.0527841,-3.475248,-0.070461914,0.88098323,772.4176,232.89377,815.9341,804.2491,929.15753,0.0,0.0,-0.08807373046875,0.00830078125,1.004638671875,2.998199462890625,-5.81695556640625,1.3458251953125,1892161.172161172,95219706.95970696,36658608.058608055,70.09482,1.0,1.0,4.0,1.0,1.0,40.0,/muse/elements/jaw_clench,0 days 00:00:00.001000
2023-11-16 11:42:50.659,1.4566671,-3.7571816,0.23257886,0.6551251,1.0126709,-3.8708124,-0.08505234,0.31605855,1.2169814,-4.038089,0.4382597,0.70760244,1.096937,-3.2491505,0.2925355,1.0496573,1.0527841,-3.475248,-0.070461914,0.88098323,763.5531,794.9817,801.8315,766.77655,709.15753,0.0,0.0,-0.0706787109375,0.0128173828125,1.01483154296875,2.370147705078125,-5.0244140625,1.68975830078125,1892161.172161172,95219706.95970696,36658608.058608055,70.09482,1.0,1.0,4.0,1.0,1.0,40.0,/muse/elements/jaw_clench,0 days 00:00:00.030000
2023-11-16 11:42:50.660,1.4566671,-3.7571816,0.23257886,0.6551251,1.0126709,-3.8708124,-0.08505234,0.31605855,1.2169814,-4.038089,0.4382597,0.70760244,1.096937,-3.2491505,0.2925355,1.0496573,1.0527841,-3.475248,-0.070461914,0.88098323,783.2967,683.36993,801.8315,764.7619,664.0293,0.0,0.0,-0.0706787109375,0.0128173828125,1.01483154296875,2.370147705078125,-5.0244140625,1.68975830078125,1892161.172161172,95219706.95970696,36658608.058608055,70.09482,1.0,1.0,4.0,1.0,1.0,40.0,/muse/elements/jaw_clench,0 days 00:00:00.001000
2023-11-16 11:42:50.660,1.4566671,-3.7571816,0.23257886,0.6551251,1.0126709,-3.8708124,-0.08505234,0.31605855,1.2169814,-4.038089,0.4382597,0.70760244,1.096937,-3.2491505,0.2925355,1.0496573,1.0527841,-3.475248,-0.070461914,0.88098323,775.2381,380.76923,804.65204,787.326,694.2491,0.0,0.0,-0.0706787109375,0.0128173828125,1.01483154296875,2.370147705078125,-5.0244140625,1.68975830078125,1892161.172161172,95219706.95970696,36658608.058608055,70.09482,1.0,1.0,4.0,1.0,1.0,40.0,/muse/elements/jaw_clench,0 days 00:00:00
2023-11-16 11:42:50.661,1.4566671,-3.7571816,0.23257886,0.6551251,1.0126709,-3.8708124,-0.08505234,0.31605855,1.2169814,-4.038089,0.4382597,0.70760244,1.096937,-3.2491505,0.2925355,1.0496573,1.0527841,-3.475248,-0.070461914,0.88098323,777.25275,652.74725,801.8315,797.8022,738.97437,0.0,0.0,-0.0706787109375,0.0128173828125,1.01483154296875,2.370147705078125,-5.0244140625,1.68975830078125,1892161.172161172,95219706.95970696,36658608.058608055,70.09482,1.0,1.0,4.0,1.0,1.0,40.0,/muse/elements/jaw_clench,0 days 00:00:00.001000
2023-11-16 11:42:50.661,1.4566671,-3.7571816,0.23257886,0.6551251,1.0126709,-3.8708124,-0.08505234,0.31605855,1.2169814,-4.038089,0.4382597,0.70760244,1.096937,-3.2491505,0.2925355,1.0496573,1.0527841,-3.475248,-0.070461914,0.88098323,798.20514,858.6447,799.81683,794.57874,759.5238,0.0,0.0,-0.0706787109375,0.0128173828125,1.01483154296875,2.370147705078125,-5.0244140625,1.68975830078125,1892161.172161172,95219706.95970696,36658608.058608055,70.09482,1.0,1.0,4.0,1.0,1.0,40.0,/muse/elements/jaw_clench,0 days 00:00:00
2023-11-16 11:42:50.662,1.4566671,-3.7571816,0.23257886,0.6551251,1.0126709,-3.8708124,-0.08505234,0.31605855,1.2169814,-4.038089,0.4382597,0.70760244,1.096937,-3.2491505,0.2925355,1.0496573,1.0527841,-3.475248,-0.070461914,0.88098323,799.41394,439.19415,805.4579,798.20514,785.7143,0.0,0.0,-0.0706787109375,0.0128173828125,1.01483154296875,2.370147705078125,-5.0244140625,1.68975830078125,1892161.172161172,95219706.95970696,36658608.058608055,70.09482,1.0,1.0,4.0,1.0,1.0,40.0,/muse/elements/jaw_clench,0 days 00:00:00.001000
2023-11-16 11:42:50.662,1.4566671,-3.7571816,0.23257886,0.6551251,1.0126709,-3.8708124,-0.08505234,0.31605855,1.2169814,-4.038089,0.4382597,0.70760244,1.096937,-3.2491505,0.2925355,1.0496573,1.0527841,-3.475248,-0.070461914,0.88098323,783.69965,62.05128,809.89014,811.50183,948.9011,0.0,0.0,-0.0706787109375,0.0128173828125,1.01483154296875,2.370147705078125,-5.0244140625,1.68975830078125,1892161.172161172,95219706.95970696,36658608.058608055,70.09482,1.0,1.0,4.0,1.0,1.0,40.0,/muse/elements/jaw_clench,0 days 00:00:00
2023-11-16 11:42:50.663,1.4566671,-3.7571816,0.23257886,0.6551251,1.0126709,-3.8708124,-0.08505234,0.31605855,1.2169814,-4.038089,0.4382597,0.70760244,1.096937,-3.2491505,0.2925355,1.0496573,1.0527841,-3.475248,-0.070461914,0.88098323,765.9707,388.02197,803.0403,772.8205,874.35895,0.0,0.0,-0.0706787109375,0.0128173828125,1.01483154296875,2.370147705078125,-5.0244140625,1.68975830078125,1892161.172161172,95219706.95970696,36658608.058608055,70.09482,1.0,1.0,4.0,1.0,1.0,40.0,/muse/elements/jaw_clench,0 days 00:00:00.001000
2023-11-16 11:42:50.663,1.4566671,-3.7571816,0.23257886,0.6551251,1.0126709,-3.8708124,-0.08505234,0.31605855,1.2169814,-4.038089,0.4382597,0.70760244,1.096937,-3.2491505,0.2925355,1.0496573,1.0527841,-3.475248,-0.070461914,0.88098323,770.80585,796.5934,798.20514,752.27106,692.23444,0.0,0.0,-0.0706787109375,0.0128173828125,1.01483154296875,2.370147705078125,-5.0244140625,1.68975830078125,1892161.172161172,95219706.95970696,36658608.058608055,70.09482,1.0,1.0,4.0,1.0,1.0,40.0,/muse/elements/jaw_clench,0 days 00:00:00
2023-11-16 11:42:50.664,1.4566671,-3.7571816,0.23257886,0.6551251,1.0126709,-3.8708124,-0.08505234,0.31605855,1.2169814,-4.038089,0.4382597,0.70760244,1.096937,-3.2491505,0.2925355,1.0496573,1.0527841,-3.475248,-0.070461914,0.88098323,789.7436,507.69232,807.8755,792.5641,743.8095,0.0,0.0,-0.0706787109375,0.0128173828125,1.01483154296875,2.370147705078125,-5.0244140625,1.68975830078125,1892161.172161172,95219706.95970696,36658608.058608055,70.09482,1.0,1.0,4.0,1.0,1.0,40.0,/muse/elements/jaw_clench,0 days 00:00:00.001000
2023-11-16 11:42:50.664,1.4566671,-3.7571816,0.23257886,0.6551251,1.0126709,-3.8708124,-0.08505234,0.31605855,1.2169814,-4.038089,0.4382597,0.70760244,1.096937,-3.2491505,0.2925355,1.0496573,1.0527841,-3.475248,-0.070461914,0.88098323,796.5934,251.42857,806.6667,801.4286,804.65204,0.0,0.0,-0.0706787109375,0.0128173828125,1.01483154296875,2.370147705078125,-5.0244140625,1.68975830078125,1892161.172161172,95219706.95970696,36658608.058608055,70.09482,1.0,1.0,4.0,1.0,1.0,40.0,/muse/elements/jaw_clench,0 days 00:00:00
2023-11-16 11:42:50.665,1.4566671,-3.7571816,0.23257886,0.6551251,1.0126709,-3.8708124,-0.08505234,0.31605855,1.2169814,-4.038089,0.4382597,0.70760244,1.096937,-3.2491505,0.2925355,1.0496573,1.0527841,-3.475248,-0.070461914,0.88098323,805.05493,601.5751,795.78754,792.1612,752.674,0.0,0.0,-0.0706787109375,0.0128173828125,1.01483154296875,2.370147705078125,-5.0244140625,1.68975830078125,1892161.172161172,95219706.95970696,36658608.058608055,70.09482,1.0,1.0,4.0,1.0,1.0,40.0,/muse/elements/jaw_clench,0 days 00:00:00.001000
2023-11-16 11:42:50.703,1.4566671,-3.7571816,0.23257886,0.6551251,1.0126709,-3.8708124,-0.08505234,0.31605855,1.2169814,-4.038089,0.4382597,0.70760244,1.096937,-3.2491505,0.2925355,1.0496573,1.0527841,-3.475248,-0.070461914,0.88098323,796.1905,740.989,804.2491,798.20514,699.4872,0.0,0.0,-0.07183837890625,0.0029296875,1.01348876953125,1.128997802734375,-4.29168701171875,2.392578125,1887326.0073260071,95312380.95238096,36695677.655677654,70.09482,1.0,1.0,4.0,1.0,1.0,40.0,/muse/elements/jaw_clench,0 days 00:00:00.038000
2023-11-16 11:42:50.704,1.4566671,-3.7571816,0.23257886,0.6551251,1.0126709,-3.8708124,-0.08505234,0.31605855,1.2169814,-4.038089,0.4382597,0.70760244,1.096937,-3.2491505,0.2925355,1.0496573,1.0527841,-3.475248,-0.070461914,0.88098323,810.293,328.7912,815.12823,817.5458,874.7619,0.0,0.0,-0.07183837890625,0.0029296875,1.01348876953125,1.128997802734375,-4.29168701171875,2.392578125,1887326.0073260071,95312380.95238096,36695677.655677654,70.09482,1.0,1.0,4.0,1.0,1.0,40.0,/muse/elements/jaw_clench,0 days 00:00:00.001000
2023-11-16 11:42:50.705,1.4566671,-3.7571816,0.23257886,0.6551251,1.0126709,-3.8708124,-0.08505234,0.31605855,1.2169814,-4.038089,0.4382597,0.70760244,1.096937,-3.2491505,0.2925355,1.0496573,1.0527841,-3.475248,-0.070461914,0.88098323,814.3223,121.68498,817.9487,813.91943,908.60803,0.0,0.0,-0.07183837890625,0.0029296875,1.01348876953125,1.128997802734375,-4.29168701171875,2.392578125,1887326.0073260071,95312380.95238096,36695677.655677654,70.09482,1.0,1.0,4.0,1.0,1.0,40.0,/muse/elements/jaw_clench,0 days 00:00:00.001000
2023-11-16 11:42:50.705,1.4566671,-3.7571816,0.23257886,0.6551251,1.0126709,-3.8708124,-0.08505234,0.31605855,1.2169814,-4.038089,0.4382597,0.70760244,1.096937,-3.2491505,0.2925355,1.0496573,1.0527841,-3.475248,-0.070461914,0.88098323,774.43225,532.674,814.7253,809.0842,709.9634,0.0,0.0,-0.07183837890625,0.0029296875,1.01348876953125,1.128997802734375,-4.29168701171875,2.392578125,1887326.0073260071,95312380.95238096,36695677.655677654,70.09482,1.0,1.0,4.0,1.0,1.0,40.0,/muse/elements/jaw_clench,0 days 00:00:00
2023-11-16 11:42:50.706,1.4566671,-3.7571816,0.23257886,0.6551251,1.0126709,-3.8708124,-0.08505234,0.31605855,1.2169814,-4.038089,0.4382597,0.70760244,1.096937,-3.2491505,0.2925355,1.0496573,1.0527841,-3.475248,-0.070461914,0.88098323,815.9341,690.6227,813.91943,819.15753,734.94507,0.0,0.0,-0.07183837890625,0.0029296875,1.01348876953125,1.128997802734375,-4.29168701171875,2.392578125,1887326.0073260071,95312380.95238096,36695677.655677654,70.09482,1.0,1.0,4.0,1.0,1.0,40.0,/muse/elements/jaw_clench,0 days 00:00:00.001000
2023-11-16 11:42:50.706,1.4566671,-3.7571816,0.23257886,0.6551251,1.0126709,-3.8708124,-0.08505234,0.31605855,1.2169814,-4.038089,0.4382597,0.70760244,1.096937,-3.2491505,0.2925355,1.0496573,1.0527841,-3.475248,-0.070461914,0.88098323,839.304,348.5348,817.9487,829.6337,877.98535,0.0,0.0,-0.07183837890625,0.0029296875,1.01348876953125,1.128997802734375,-4.29168701171875,2.392578125,1887326.0073260071,95312380.95238096,36695677.655677654,70.09482,1.0,1.0,4.0,1.0,1.0,40.0,/muse/elements/jaw_clench,0 days 00:00:00
2023-11-16 11:42:50.707,1.4566671,-3.7571816,0.23257886,0.6551251,1.0126709,-3.8708124,-0.08505234,0.31605855,1.2169814,-4.038089,0.4382597,0.70760244,1.096937,-3.2491505,0.2925355,1.0496573,1.0527841,-3.475248,-0.070461914,0.88098323,811.0989,117.25275,816.337,828.4249,920.293,0.0,0.0,-0.07183837890625,0.0029296875,1.01348876953125,1.128997802734375,-4.29168701171875,2.392578125,1887326.0073260071,95312380.95238096,36695677.655677654,70.09482,1.0,1.0,4.0,1.0,1.0,40.0,/muse/elements/jaw_clench,0 days 00:00:00.001000
2023-11-16 11:42:50.707,1.4566671,-3.7571816,0.21626845,0.6608353,1.0126709,-3.8708124,-0.09448447,0.26089588,1.2169814,-4.038089,0.35821453,0.64757836,1.096937,-3.2491505,0.27937457,1.0387621,1.0527841,-3.475248,-0.07632646,0.88349867,804.2491,377.94873,805.4579,809.89014,807.0696,0.0,0.0,-0.07183837890625,0.0029296875,1.01348876953125,1.128997802734375,-4.29168701171875,2.392578125,1887326.0073260071,95312380.95238096,36695677.655677654,70.09482,1.0,1.0,4.0,1.0,1.0,40.0,/muse/elements/jaw_clench,0 days 00:00:00
2023-11-16 11:42:50.710,1.4566671,-3.7571816,0.21626845,0.6608353,1.0126709,-3.8708124,-0.09448447,0.26089588,1.2169814,-4.038089,0.35821453,0.64757836,1.096937,-3.2491505,0.27937457,1.0387621,1.0527841,-3.475248,-0.07632646,0.88349867,796.1905,664.43225,796.99634,801.4286,715.2015,0.0,0.0,-0.07183837890625,0.0029296875,1.01348876953125,1.128997802734375,-4.29168701171875,2.392578125,1887326.0073260071,95312380.95238096,36695677.655677654,70.09482,1.0,1.0,4.0,1.0,1.0,40.0,/muse/elements/jaw_clench,0 days 00:00:00.003000
2023-11-16 11:42:50.710,1.4566671,-3.7571816,0.21626845,0.6608353,1.0126709,-3.8708124,-0.09448447,0.26089588,1.2169814,-4.038089,0.35821453,0.64757836,1.096937,-3.2491505,0.27937457,1.0387621,1.0527841,-3.475248,-0.07632646,0.88349867,792.96704,320.7326,811.0989,813.1135,861.06226,0.0,0.0,-0.07183837890625,0.0029296875,1.01348876953125,1.128997802734375,-4.29168701171875,2.392578125,1887326.0073260071,95312380.95238096,36695677.655677654,70.09482,1.0,1.0,4.0,1.0,1.0,40.0,/muse/elements/jaw_clench,0 days 00:00:00
2023-11-16 11:42:50.711,1.4566671,-3.7571816,0.21626845,0.6608353,1.0126709,-3.8708124,-0.09448447,0.26089588,1.2169814,-4.038089,0.35821453,0.64757836,1.096937,-3.2491505,0.27937457,1.0387621,1.0527841,-3.475248,-0.07632646,0.88349867,819.9634,0.0,821.5751,828.8278,1079.0476,0.0,0.0,-0.07183837890625,0.0029296875,1.01348876953125,1.128997802734375,-4.29168701171875,2.392578125,1887326.0073260071,95312380.95238096,36695677.655677654,70.09482,1.0,1.0,4.0,1.0,1.0,40.0,/muse/elements/jaw_clench,0 days 00:00:00.001000
2023-11-16 11:42:50.711,1.4566671,-3.7571816,0.21626845,0.6608353,1.0126709,-3.8708124,-0.09448447,0.26089588,1.2169814,-4.038089,0.35821453,0.64757836,1.096937,-3.2491505,0.27937457,1.0387621,1.0527841,-3.475248,-0.07632646,0.88349867,812.3077,390.03662,809.89014,791.3553,854.61536,0.0,0.0,-0.07183837890625,0.0029296875,1.01348876953125,1.128997802734375,-4.29168701171875,2.392578125,1887326.0073260071,95312380.95238096,36695677.655677654,70.09482,1.0,1.0,4.0,1.0,1.0,40.0,/muse/elements/jaw_clench,0 days 00:00:00
2023-11-16 11:42:50.774,1.4566671,-3.7571816,0.21626845,0.6608353,1.0126709,-3.8708124,-0.09448447,0.26089588,1.2169814,-4.038089,0.35821453,0.64757836,1.096937,-3.2491505,0.27937457,1.0387621,1.0527841,-3.475248,-0.07632646,0.88349867,797.3993,613.2601,809.0842,792.1612,681.3553,0.0,0.0,-0.07183837890625,0.0029296875,1.01348876953125,1.128997802734375,-4.29168701171875,2.392578125,1887326.0073260071,95312380.95238096,36695677.655677654,70.09482,1.0,1.0,4.0,1.0,1.0,40.0,/muse/elements/jaw_clench,0 days 00:00:00.063000
2023-11-16 11:42:50.775,1.4566671,-3.7571816,0.21626845,0.6608353,1.0126709,-3.8708124,-0.09448447,0.26089588,1.2169814,-4.038089,0.35821453,0.64757836,1.096937,-3.2491505,0.27937457,1.0387621,1.0527841,-3.475248,-0.07632646,0.88349867,805.8608,480.69598,807.0696,816.337,712.381,0.0,0.0,-0.07183837890625,0.0029296875,1.01348876953125,1.128997802734375,-4.29168701171875,2.392578125,1887326.0073260071,95312380.95238096,36695677.655677654,70.09482,1.0,1.0,4.0,1.0,1.0,40.0,/muse/elements/jaw_clench,0 days 00:00:00.001000
2023-11-16 11:42:50.776,1.4566671,-3.7571816,0.21626845,0.6608353,1.0126709,-3.8708124,-0.09448447,0.26089588,1.2169814,-4.038089,0.35821453,0.64757836,1.096937,-3.2491505,0.27937457,1.0387621,1.0527841,-3.475248,-0.07632646,0.88349867,786.1172,610.84247,799.41394,803.0403,748.24176,0.0,0.0,-0.07183837890625,0.0029296875,1.01348876953125,1.128997802734375,-4.29168701171875,2.392578125,1887326.0073260071,95312380.95238096,36695677.655677654,70.09482,1.0,1.0,4.0,1.0,1.0,40.0,/muse/elements/jaw_clench,0 days 00:00:00.001000
2023-11-16 11:42:50.776,1.4566671,-3.7571816,0.21626845,0.6608353,1.0126709,-3.8708124,-0.09448447,0.26089588,1.2169814,-4.038089,0.35821453,0.64757836,1.096937,-3.2491505,0.27937457,1.0387621,1.0527841,-3.475248,-0.07632646,0.88349867,796.5934,617.28937,805.05493,784.10254,714.3956,0.0,0.0,-0.07183837890625,0.0029296875,1.01348876953125,1.128997802734375,-4.29168701171875,2.392578125,1887326.0073260071,95312380.95238096,36695677.655677654,70.09482,1.0,1.0,4.0,1.0,1.0,40.0,/muse/elements/jaw_clench,0 days 00:00:00
2023-11-16 11:42:50.777,1.4566671,-3.7571816,0.21626845,0.6608353,1.0126709,-3.8708124,-0.09448447,0.26089588,1.2169814,-4.038089,0.35821453,0.64757836,1.096937,-3.2491505,0.27937457,1.0387621,1.0527841,-3.475248,-0.07632646,0.88349867,811.50183,355.78754,805.8608,772.01465,738.97437,0.0,0.0,-0.07183837890625,0.0029296875,1.01348876953125,1.128997802734375,-4.29168701171875,2.392578125,1887326.0073260071,95312380.95238096,36695677.655677654,70.09482,1.0,1.0,4.0,1.0,1.0,40.0,/muse/elements/jaw_clench,0 days 00:00:00.001000
2023-11-16 11:42:50.778,1.4566671,-3.7571816,0.21626845,0.6608353,1.0126709,-3.8708124,-0.09448447,0.26089588,1.2169814,-4.038089,0.35821453,0.64757836,1.096937,-3.2491505,0.27937457,1.0387621,1.0527841,-3.475248,-0.07632646,0.88349867,829.2308,145.05495,805.8608,822.381,870.7326,0.0,0.0,-0.07183837890625,0.0029296875,1.01348876953125,1.128997802734375,-4.29168701171875,2.392578125,1887326.0073260071,95312380.95238096,36695677.655677654,70.09482,1.0,1.0,4.0,1.0,1.0,40.0,/muse/elements/jaw_clench,0 days 00:00:00.001000
2023-11-16 11:42:50.778,1.4566671,-3.7571816,0.21626845,0.6608353,1.0126709,-3.8708124,-0.09448447,0.26089588,1.2169814,-4.038089,0.35821453,0.64757836,1.096937,-3.2491505,0.27937457,1.0387621,1.0527841,-3.475248,-0.07632646,0.88349867,793.36993,134.98169,815.5311,813.91943,811.50183,0.0,0.0,-0.07183837890625,0.0029296875,1.01348876953125,1.128997802734375,-4.29168701171875,2.392578125,1887326.0073260071,95312380.95238096,36695677.655677654,70.09482,1.0,1.0,4.0,1.0,1.0,40.0,/muse/elements/jaw_clench,0 days 00:00:00
2023-11-16 11:42:50.779,1.4566671,-3.7571816,0.21626845,0.6608353,1.0126709,-3.8708124,-0.09448447,0.26089588,1.2169814,-4.038089,0.35821453,0.64757836,1.096937,-3.2491505,0.27937457,1.0387621,1.0527841,-3.475248,-0.07632646,0.88349867,758.71796,348.5348,818.7546,753.8828,692.23444,0.0,0.0,-0.07183837890625,0.0029296875,1.01348876953125,1.128997802734375,-4.29168701171875,2.392578125,1887326.0073260071,95312380.95238096,36695677.655677654,70.09482,1.0,1.0,4.0,1.0,1.0,40.0,/muse/elements/jaw_clench,0 days 00:00:00.001000
2023-11-16 11:42:50.779,1.4566671,-3.7571816,0.21626845,0.6608353,1.0126709,-3.8708124,-0.09448447,0.26089588,1.2169814,-4.038089,0.35821453,0.64757836,1.096937,-3.2491505,0.27937457,1.0387621,1.0527841,-3.475248,-0.07632646,0.88349867,771.6117,371.50183,821.1722,774.0293,689.41394,0.0,0.0,-0.07183837890625,0.0029296875,1.01348876953125,1.128997802734375,-4.29168701171875,2.392578125,1887326.0073260071,95312380.95238096,36695677.655677654,70.09482,1.0,1.0,4.0,1.0,1.0,40.0,/muse/elements/jaw_clench,0 days 00:00:00
2023-11-16 11:42:50.780,1.4566671,-3.7571816,0.21626845,0.6608353,1.0126709,-3.8708124,-0.09448447,0.26089588,1.2169814,-4.038089,0.35821453,0.64757836,1.096937,-3.2491505,0.27937457,1.0387621,1.0527841,-3.475248,-0.07632646,0.88349867,810.696,72.12454,832.4542,850.18317,849.7802,0.0,0.0,-0.07183837890625,0.0029296875,1.01348876953125,1.128997802734375,-4.29168701171875,2.392578125,1887326.0073260071,95312380.95238096,36695677.655677654,70.09482,1.0,1.0,4.0,1.0,1.0,40.0,/muse/elements/jaw_clench,0 days 00:00:00.001000
2023-11-16 11:42:50.780,1.4566671,-3.7571816,0.21626845,0.6608353,1.0126709,-3.8708124,-0.09448447,0.26089588,1.2169814,-4.038089,0.35821453,0.64757836,1.096937,-3.2491505,0.27937457,1.0387621,1.0527841,-3.475248,-0.07632646,0.88349867,792.1612,424.2857,828.8278,863.47986,810.696,0.0,0.0,-0.07183837890625,0.0029296875,1.01348876953125,1.128997802734375,-4.29168701171875,2.392578125,1887326.0073260071,95312380.95238096,36695677.655677654,70.09482,1.0,1.0,4.0,1.0,1.0,40.0,/muse/elements/jaw_clench,0 days 00:00:00
2023-11-16 11:42:50.781,1.4566671,-3.7571816,0.21626845,0.6608353,1.0126709,-3.8708124,-0.09448447,0.26089588,1.2169814,-4.038089,0.35821453,0.64757836,1.096937,-3.2491505,0.27937457,1.0387621,1.0527841,-3.475248,-0.07632646,0.88349867,803.0403,715.2015,818.3516,826.0073,653.95605,0.0,0.0,-0.07183837890625,0.0029296875,1.01348876953125,1.128997802734375,-4.29168701171875,2.392578125,1887326.0073260071,95312380.95238096,36695677.655677654,70.09482,1.0,1.0,4.0,1.0,1.0,40.0,/muse/elements/jaw_clench,0 days 00:00:00.001000
2023-11-16 11:42:50.819,1.4566671,-3.7571816,0.21626845,0.6608353,1.0126709,-3.8708124,-0.09448447,0.26089588,1.2169814,-4.038089,0.35821453,0.64757836,1.096937,-3.2491505,0.27937457,1.0387621,1.0527841,-3.475248,-0.07632646,0.88349867,819.15753,362.63736,821.5751,798.20514,681.3553,0.0,0.0,-0.0916748046875,-0.00836181640625,1.00811767578125,1.203765869140625,-4.508514404296875,1.443023681640625,1884102.564102564,95447765.56776556,36725494.505494505,70.09482,1.0,1.0,4.0,1.0,1.0,40.0,/muse/elements/jaw_clench,0 days 00:00:00.038000
2023-11-16 11:42:50.820,1.4566671,-3.7571816,0.21626845,0.6608353,1.0126709,-3.8708124,-0.09448447,0.26089588,1.2169814,-4.038089,0.35821453,0.64757836,1.096937,-3.2491505,0.27937457,1.0387621,1.0527841,-3.475248,-0.07632646,0.88349867,792.1612,324.7619,815.5311,766.3736,704.3223,0.0,0.0,-0.0916748046875,-0.00836181640625,1.00811767578125,1.203765869140625,-4.508514404296875,1.443023681640625,1884102.564102564,95447765.56776556,36725494.505494505,70.09482,1.0,1.0,4.0,1.0,1.0,40.0,/muse/elements/jaw_clench,0 days 00:00:00.001000
2023-11-16 11:42:50.820,1.4566671,-3.7571816,0.21626845,0.6608353,1.0126709,-3.8708124,-0.09448447,0.26089588,1.2169814,-4.038089,0.35821453,0.64757836,1.096937,-3.2491505,0.27937457,1.0387621,1.0527841,-3.475248,-0.07632646,0.88349867,800.6227,658.3883,806.6667,770.40295,686.1905,0.0,0.0,-0.0916748046875,-0.00836181640625,1.00811767578125,1.203765869140625,-4.508514404296875,1.443023681640625,1884102.564102564,95447765.56776556,36725494.505494505,70.09482,1.0,1.0,4.0,1.0,1.0,40.0,/muse/elements/jaw_clench,0 days 00:00:00
2023-11-16 11:42:50.820,1.4566671,-3.7571816,0.21626845,0.6608353,1.0126709,-3.8708124,-0.09448447,0.26089588,1.2169814,-4.038089,0.35821453,0.64757836,1.096937,-3.2491505,0.27937457,1.0387621,1.0527841,-3.475248,-0.07632646,0.88349867,796.5934,680.9524,809.4872,815.9341,670.4762,0.0,0.0,-0.0916748046875,-0.00836181640625,1.00811767578125,1.203765869140625,-4.508514404296875,1.443023681640625,1884102.564102564,95447765.56776556,36725494.505494505,70.09482,1.0,1.0,4.0,1.0,1.0,40.0,/muse/elements/jaw_clench,0 days 00:00:00
2023-11-16 11:42:50.820,1.4566671,-3.7571816,0.21626845,0.6608353,1.0126709,-3.8708124,-0.09448447,0.26089588,1.2169814,-4.038089,0.35821453,0.64757836,1.096937,-3.2491505,0.27937457,1.0387621,1.0527841,-3.475248,-0.07632646,0.88349867,809.4872,323.95605,815.9341,826.4103,688.20514,0.0,0.0,-0.0916748046875,-0.00836181640625,1.00811767578125,1.203765869140625,-4.508514404296875,1.443023681640625,1884102.564102564,95447765.56776556,36725494.505494505,70.09482,1.0,1.0,4.0,1.0,1.0,40.0,/muse/elements/jaw_clench,0 days 00:00:00
2023-11-16 11:42:50.820,1.4566671,-3.7571816,0.21626845,0.6608353,1.0126709,-3.8708124,-0.09448447,0.26089588,1.2169814,-4.038089,0.35821453,0.64757836,1.096937,-3.2491505,0.27937457,1.0387621,1.0527841,-3.475248,-0.07632646,0.88349867,818.3516,112.82051,817.5458,825.6044,763.5531,0.0,0.0,-0.0916748046875,-0.00836181640625,1.00811767578125,1.203765869140625,-4.508514404296875,1.443023681640625,1884102.564102564,95447765.56776556,36725494.505494505,70.09482,1.0,1.0,4.0,1.0,1.0,40.0,/muse/elements/jaw_clench,0 days 00:00:00
2023-11-16 11:42:50.821,1.4566671,-3.7571816,0.21626845,0.6608353,1.0126709,-3.8708124,-0.09448447,0.26089588,1.2169814,-4.038089,0.35821453,0.64757836,1.096937,-3.2491505,0.27937457,1.0387621,1.0527841,-3.475248,-0.07632646,0.88349867,821.978,259.08426,808.2784,819.15753,814.3223,0.0,0.0,-0.0916748046875,-0.00836181640625,1.00811767578125,1.203765869140625,-4.508514404296875,1.443023681640625,1884102.564102564,95447765.56776556,36725494.505494505,70.09482,1.0,1.0,4.0,1.0,1.0,40.0,/muse/elements/jaw_clench,0 days 00:00:00.001000
2023-11-16 11:42:50.821,1.4566671,-3.7571816,0.21626845,0.6608353,1.0126709,-3.8708124,-0.09448447,0.26089588,1.2169814,-4.038089,0.35821453,0.64757836,1.096937,-3.2491505,0.27937457,1.0387621,1.0527841,-3.475248,-0.07632646,0.88349867,846.1539,298.97437,803.0403,838.0952,800.2198,0.0,0.0,-0.0916748046875,-0.00836181640625,1.00811767578125,1.203765869140625,-4.508514404296875,1.443023681640625,1884102.564102564,95447765.56776556,36725494.505494505,70.09482,1.0,1.0,4.0,1.0,1.0,40.0,/muse/elements/jaw_clench,0 days 00:00:00
2023-11-16 11:42:50.821,1.4566671,-3.7571816,0.21626845,0.6608353,1.0126709,-3.8708124,-0.09448447,0.26089588,1.2169814,-4.038089,0.35821453,0.64757836,1.096937,-3.2491505,0.27937457,1.0387621,1.0527841,-3.475248,-0.07632646,0.88349867,838.49817,162.78389,814.7253,855.82416,893.69965,0.0,0.0,-0.0916748046875,-0.00836181640625,1.00811767578125,1.203765869140625,-4.508514404296875,1.443023681640625,1884102.564102564,95447765.56776556,36725494.505494505,70.09482,1.0,1.0,4.0,1.0,1.0,40.0,/muse/elements/jaw_clench,0 days 00:00:00
2023-11-16 11:42:50.821,1.4566671,-3.7571816,0.20910592,0.65991664,1.0126709,-3.8708124,-0.08230225,0.21878716,1.2169814,-4.038089,0.25448832,0.61001635,1.096937,-3.2491505,0.26633647,1.0328315,1.0527841,-3.475248,-0.066947795,0.8797542,812.71063,0.0,819.15753,827.619,1153.1868,0.0,0.0,-0.0916748046875,-0.00836181640625,1.00811767578125,1.203765869140625,-4.508514404296875,1.443023681640625,1884102.564102564,95447765.56776556,36725494.505494505,70.09482,1.0,1.0,4.0,1.0,1.0,40.0,/muse/elements/jaw_clench,0 days 00:00:00
2023-11-16 11:42:50.822,1.4566671,-3.7571816,0.20910592,0.65991664,1.0126709,-3.8708124,-0.08230225,0.21878716,1.2169814,-4.038089,0.25448832,0.61001635,1.096937,-3.2491505,0.26633647,1.0328315,1.0527841,-3.475248,-0.066947795,0.8797542,806.6667,263.51648,812.71063,834.0659,1015.38464,0.0,0.0,-0.0916748046875,-0.00836181640625,1.00811767578125,1.203765869140625,-4.508514404296875,1.443023681640625,1884102.564102564,95447765.56776556,36725494.505494505,70.09482,1.0,1.0,4.0,1.0,1.0,40.0,/muse/elements/jaw_clench,0 days 00:00:00.001000
2023-11-16 11:42:50.822,1.4566671,-3.7571816,0.20910592,0.65991664,1.0126709,-3.8708124,-0.08230225,0.21878716,1.2169814,-4.038089,0.25448832,0.61001635,1.096937,-3.2491505,0.26633647,1.0328315,1.0527841,-3.475248,-0.066947795,0.8797542,813.91943,658.7912,815.12823,807.8755,748.24176,0.0,0.0,-0.0916748046875,-0.00836181640625,1.00811767578125,1.203765869140625,-4.508514404296875,1.443023681640625,1884102.564102564,95447765.56776556,36725494.505494505,70.09482,1.0,1.0,4.0,1.0,1.0,40.0,/muse/elements/jaw_clench,0 days 00:00:00
2023-11-16 11:42:50.857,1.4566671,-3.7571816,0.20910592,0.65991664,1.0126709,-3.8708124,-0.08230225,0.21878716,1.2169814,-4.038089,0.25448832,0.61001635,1.096937,-3.2491505,0.26633647,1.0328315,1.0527841,-3.475248,-0.066947795,0.8797542,801.4286,420.65933,816.7399,811.9048,740.18317,0.0,0.0,-0.0684814453125,-0.003173828125,0.9981689453125,0.067291259765625,-2.76641845703125,2.9608154296875,1884102.564102564,95447765.56776556,36725494.505494505,70.09482,1.0,1.0,4.0,1.0,1.0,40.0,/muse/elements/jaw_clench,0 days 00:00:00.035000
2023-11-16 11:42:50.857,1.4566671,-3.7571816,0.20910592,0.65991664,1.0126709,-3.8708124,-0.08230225,0.21878716,1.2169814,-4.038089,0.25448832,0.61001635,1.096937,-3.2491505,0.26633647,1.0328315,1.0527841,-3.475248,-0.066947795,0.8797542,809.0842,537.1062,809.0842,815.12823,751.8681,0.0,0.0,-0.0684814453125,-0.003173828125,0.9981689453125,0.067291259765625,-2.76641845703125,2.9608154296875,1884102.564102564,95447765.56776556,36725494.505494505,70.09482,1.0,1.0,4.0,1.0,1.0,40.0,/muse/elements/jaw_clench,0 days 00:00:00
2023-11-16 11:42:50.858,1.4566671,-3.7571816,0.20910592,0.65991664,1.0126709,-3.8708124,-0.08230225,0.21878716,1.2169814,-4.038089,0.25448832,0.61001635,1.096937,-3.2491505,0.26633647,1.0328315,1.0527841,-3.475248,-0.066947795,0.8797542,842.9304,811.9048,805.4579,817.1429,759.5238,0.0,0.0,-0.0684814453125,-0.003173828125,0.9981689453125,0.067291259765625,-2.76641845703125,2.9608154296875,1884102.564102564,95447765.56776556,36725494.505494505,70.09482,1.0,1.0,4.0,1.0,1.0,40.0,/muse/elements/jaw_clench,0 days 00:00:00.001000
2023-11-16 11:42:50.859,1.4566671,-3.7571816,0.20910592,0.65991664,1.0126709,-3.8708124,-0.08230225,0.21878716,1.2169814,-4.038089,0.25448832,0.61001635,1.096937,-3.2491505,0.26633647,1.0328315,1.0527841,-3.475248,-0.066947795,0.8797542,828.022,716.8132,803.0403,842.1245,776.8498,0.0,0.0,-0.0684814453125,-0.003173828125,0.9981689453125,0.067291259765625,-2.76641845703125,2.9608154296875,1884102.564102564,95447765.56776556,36725494.505494505,70.09482,1.0,1.0,4.0,1.0,1.0,40.0,/muse/elements/jaw_clench,0 days 00:00:00.001000
2023-11-16 11:42:50.859,1.4566671,-3.7571816,0.20910592,0.65991664,1.0126709,-3.8708124,-0.08230225,0.21878716,1.2169814,-4.038089,0.25448832,0.61001635,1.096937,-3.2491505,0.26633647,1.0328315,1.0527841,-3.475248,-0.066947795,0.8797542,794.57874,404.94507,803.0403,767.98535,790.54944,0.0,0.0,-0.0684814453125,-0.003173828125,0.9981689453125,0.067291259765625,-2.76641845703125,2.9608154296875,1884102.564102564,95447765.56776556,36725494.505494505,70.09482,1.0,1.0,4.0,1.0,1.0,40.0,/muse/elements/jaw_clench,0 days 00:00:00
2023-11-16 11:42:50.860,1.4566671,-3.7571816,0.20910592,0.65991664,1.0126709,-3.8708124,-0.08230225,0.21878716,1.2169814,-4.038089,0.25448832,0.61001635,1.096937,-3.2491505,0.26633647,1.0328315,1.0527841,-3.475248,-0.066947795,0.8797542,796.5934,270.76923,802.23444,752.27106,808.68134,0.0,0.0,-0.0684814453125,-0.003173828125,0.9981689453125,0.067291259765625,-2.76641845703125,2.9608154296875,1884102.564102564,95447765.56776556,36725494.505494505,70.09482,1.0,1.0,4.0,1.0,1.0,40.0,/muse/elements/jaw_clench,0 days 00:00:00.001000
2023-11-16 11:42:50.860,1.4566671,-3.7571816,0.20910592,0.65991664,1.0126709,-3.8708124,-0.08230225,0.21878716,1.2169814,-4.038089,0.25448832,0.61001635,1.096937,-3.2491505,0.26633647,1.0328315,1.0527841,-3.475248,-0.066947795,0.8797542,838.9011,352.56412,805.4579,799.41394,827.2161,0.0,0.0,-0.0684814453125,-0.003173828125,0.9981689453125,0.067291259765625,-2.76641845703125,2.9608154296875,1884102.564102564,95447765.56776556,36725494.505494505,70.09482,1.0,1.0,4.0,1.0,1.0,40.0,/muse/elements/jaw_clench,0 days 00:00:00
2023-11-16 11:42:50.861,1.4566671,-3.7571816,0.20910592,0.65991664,1.0126709,-3.8708124,-0.08230225,0.21878716,1.2169814,-4.038089,0.25448832,0.61001635,1.096937,-3.2491505,0.26633647,1.0328315,1.0527841,-3.475248,-0.066947795,0.8797542,844.1392,354.57877,815.5311,829.6337,805.8608,0.0,0.0,-0.0684814453125,-0.003173828125,0.9981689453125,0.067291259765625,-2.76641845703125,2.9608154296875,1884102.564102564,95447765.56776556,36725494.505494505,70.09482,1.0,1.0,4.0,1.0,1.0,40.0,/muse/elements/jaw_clench,0 days 00:00:00.001000
2023-11-16 11:42:50.861,1.4566671,-3.7571816,0.20910592,0.65991664,1.0126709,-3.8708124,-0.08230225,0.21878716,1.2169814,-4.038089,0.25448832,0.61001635,1.096937,-3.2491505,0.26633647,1.0328315,1.0527841,-3.475248,-0.066947795,0.8797542,821.5751,99.52381,821.978,842.9304,915.4579,0.0,0.0,-0.0684814453125,-0.003173828125,0.9981689453125,0.067291259765625,-2.76641845703125,2.9608154296875,1884102.564102564,95447765.56776556,36725494.505494505,70.09482,1.0,1.0,4.0,1.0,1.0,40.0,/muse/elements/jaw_clench,0 days 00:00:00
2023-11-16 11:42:50.862,1.4566671,-3.7571816,0.20910592,0.65991664,1.0126709,-3.8708124,-0.08230225,0.21878716,1.2169814,-4.038089,0.25448832,0.61001635,1.096937,-3.2491505,0.26633647,1.0328315,1.0527841,-3.475248,-0.066947795,0.8797542,801.4286,287.69232,815.5311,832.0513,832.8571,0.0,0.0,-0.0684814453125,-0.003173828125,0.9981689453125,0.067291259765625,-2.76641845703125,2.9608154296875,1884102.564102564,95447765.56776556,36725494.505494505,70.09482,1.0,1.0,4.0,1.0,1.0,40.0,/muse/elements/jaw_clench,0 days 00:00:00.001000
2023-11-16 11:42:50.862,1.4566671,-3.7571816,0.20910592,0.65991664,1.0126709,-3.8708124,-0.08230225,0.21878716,1.2169814,-4.038089,0.25448832,0.61001635,1.096937,-3.2491505,0.26633647,1.0328315,1.0527841,-3.475248,-0.066947795,0.8797542,817.1429,583.44324,808.68134,805.05493,703.1135,0.0,0.0,-0.0684814453125,-0.003173828125,0.9981689453125,0.067291259765625,-2.76641845703125,2.9608154296875,1884102.564102564,95447765.56776556,36725494.505494505,70.09482,1.0,1.0,4.0,1.0,1.0,40.0,/muse/elements/jaw_clench,0 days 00:00:00
2023-11-16 11:42:50.863,1.4566671,-3.7571816,0.20910592,0.65991664,1.0126709,-3.8708124,-0.08230225,0.21878716,1.2169814,-4.038089,0.25448832,0.61001635,1.096937,-3.2491505,0.26633647,1.0328315,1.0527841,-3.475248,-0.066947795,0.8797542,833.2601,314.68866,811.9048,836.4835,828.4249,0.0,0.0,-0.0684814453125,-0.003173828125,0.9981689453125,0.067291259765625,-2.76641845703125,2.9608154296875,1884102.564102564,95447765.56776556,36725494.505494505,70.09482,1.0,1.0,4.0,1.0,1.0,40.0,/muse/elements/jaw_clench,0 days 00:00:00.001000
2023-11-16 11:42:50.889,1.4566671,-3.7571816,0.20910592,0.65991664,1.0126709,-3.8708124,-0.08230225,0.21878716,1.2169814,-4.038089,0.25448832,0.61001635,1.096937,-3.2491505,0.26633647,1.0328315,1.0527841,-3.475248,-0.066947795,0.8797542,830.4396,243.36996,811.9048,804.2491,852.1978,0.0,0.0,-0.070068359375,0.002685546875,0.98199462890625,1.55517578125,-3.78326416015625,4.104766845703125,1884908.424908425,95465494.5054945,36702124.54212454,70.09482,1.0,1.0,4.0,1.0,1.0,40.0,/muse/elements/jaw_clench,0 days 00:00:00.026000
2023-11-16 11:42:50.890,1.4566671,-3.7571816,0.20910592,0.65991664,1.0126709,-3.8708124,-0.08230225,0.21878716,1.2169814,-4.038089,0.25448832,0.61001635,1.096937,-3.2491505,0.26633647,1.0328315,1.0527841,-3.475248,-0.066947795,0.8797542,807.0696,627.3626,801.8315,767.98535,717.2161,0.0,0.0,-0.070068359375,0.002685546875,0.98199462890625,1.55517578125,-3.78326416015625,4.104766845703125,1884908.424908425,95465494.5054945,36702124.54212454,70.09482,1.0,1.0,4.0,1.0,1.0,40.0,/muse/elements/jaw_clench,0 days 00:00:00.001000
2023-11-16 11:42:50.890,1.4566671,-3.7571816,0.20910592,0.65991664,1.0126709,-3.8708124,-0.08230225,0.21878716,1.2169814,-4.038089,0.25448832,0.61001635,1.096937,-3.2491505,0.26633647,1.0328315,1.0527841,-3.475248,-0.066947795,0.8797542,788.93774,686.1905,805.4579,808.2784,668.46155,0.0,0.0,-0.070068359375,0.002685546875,0.98199462890625,1.55517578125,-3.78326416015625,4.104766845703125,1884908.424908425,95465494.5054945,36702124.54212454,70.09482,1.0,1.0,4.0,1.0,1.0,40.0,/muse/elements/jaw_clench,0 days 00:00:00
2023-11-16 11:42:50.891,1.4566671,-3.7571816,0.20910592,0.65991664,1.0126709,-3.8708124,-0.08230225,0.21878716,1.2169814,-4.038089,0.25448832,0.61001635,1.096937,-3.2491505,0.26633647,1.0328315,1.0527841,-3.475248,-0.066947795,0.8797542,823.9927,545.9707,807.47253,802.6374,757.1062,0.0,0.0,-0.070068359375,0.002685546875,0.98199462890625,1.55517578125,-3.78326416015625,4.104766845703125,1884908.424908425,95465494.5054945,36702124.54212454,70.09482,1.0,1.0,4.0,1.0,1.0,40.0,/muse/elements/jaw_clench,0 days 00:00:00.001000
2023-11-16 11:42:50.891,1.4566671,-3.7571816,0.20910592,0.65991664,1.0126709,-3.8708124,-0.08230225,0.21878716,1.2169814,-4.038089,0.25448832,0.61001635,1.096937,-3.2491505,0.26633647,1.0328315,1.0527841,-3.475248,-0.066947795,0.8797542,830.4396,615.6777,803.8461,820.3663,764.35895,0.0,0.0,-0.070068359375,0.002685546875,0.98199462890625,1.55517578125,-3.78326416015625,4.104766845703125,1884908.424908425,95465494.5054945,36702124.54212454,70.09482,1.0,1.0,4.0,1.0,1.0,40.0,/muse/elements/jaw_clench,0 days 00:00:00
2023-11-16 11:42:50.892,1.4566671,-3.7571816,0.20910592,0.65991664,1.0126709,-3.8708124,-0.08230225,0.21878716,1.2169814,-4.038089,0.25448832,0.61001635,1.096937,-3.2491505,0.26633647,1.0328315,1.0527841,-3.475248,-0.066947795,0.8797542,802.23444,566.9231,806.26373,819.5604,785.7143,0.0,0.0,-0.070068359375,0.002685546875,0.98199462890625,1.55517578125,-3.78326416015625,4.104766845703125,1884908.424908425,95465494.5054945,36702124.54212454,70.09482,1.0,1.0,4.0,1.0,1.0,40.0,/muse/elements/jaw_clench,0 days 00:00:00.001000
2023-11-16 11:42:50.892,1.4566671,-3.7571816,0.20910592,0.65991664,1.0126709,-3.8708124,-0.08230225,0.21878716,1.2169814,-4.038089,0.25448832,0.61001635,1.096937,-3.2491505,0.26633647,1.0328315,1.0527841,-3.475248,-0.066947795,0.8797542,776.4469,453.2967,803.0403,793.7729,768.7912,0.0,0.0,-0.070068359375,0.002685546875,0.98199462890625,1.55517578125,-3.78326416015625,4.104766845703125,1884908.424908425,95465494.5054945,36702124.54212454,70.09482,1.0,1.0,4.0,1.0,1.0,40.0,/muse/elements/jaw_clench,0 days 00:00:00
2023-11-16 11:42:50.892,1.4566671,-3.7571816,0.20910592,0.65991664,1.0126709,-3.8708124,-0.08230225,0.21878716,1.2169814,-4.038089,0.25448832,0.61001635,1.096937,-3.2491505,0.26633647,1.0328315,1.0527841,-3.475248,-0.066947795,0.8797542,818.7546,216.77655,804.65204,808.2784,848.97437,0.0,0.0,-0.070068359375,0.002685546875,0.98199462890625,1.55517578125,-3.78326416015625,4.104766845703125,1884908.424908425,95465494.5054945,36702124.54212454,70.09482,1.0,1.0,4.0,1.0,1.0,40.0,/muse/elements/jaw_clench,0 days 00:00:00
2023-11-16 11:42:50.893,1.4566671,-3.7571816,0.20910592,0.65991664,1.0126709,-3.8708124,-0.08230225,0.21878716,1.2169814,-4.038089,0.25448832,0.61001635,1.096937,-3.2491505,0.26633647,1.0328315,1.0527841,-3.475248,-0.066947795,0.8797542,845.34796,248.20512,805.4579,840.9158,952.9304,0.0,0.0,-0.070068359375,0.002685546875,0.98199462890625,1.55517578125,-3.78326416015625,4.104766845703125,1884908.424908425,95465494.5054945,36702124.54212454,70.09482,1.0,1.0,4.0,1.0,1.0,40.0,/muse/elements/jaw_clench,0 days 00:00:00.001000
2023-11-16 11:42:50.893,1.4566671,-3.7571816,0.20910592,0.65991664,1.0126709,-3.8708124,-0.08230225,0.21878716,1.2169814,-4.038089,0.25448832,0.61001635,1.096937,-3.2491505,0.26633647,1.0328315,1.0527841,-3.475248,-0.066947795,0.8797542,796.5934,597.1429,804.2491,829.6337,776.8498,0.0,0.0,-0.070068359375,0.002685546875,0.98199462890625,1.55517578125,-3.78326416015625,4.104766845703125,1884908.424908425,95465494.5054945,36702124.54212454,70.09482,1.0,1.0,4.0,1.0,1.0,40.0,/muse/elements/jaw_clench,0 days 00:00:00
2023-11-16 11:42:50.894,1.4566671,-3.7571816,0.20910592,0.65991664,1.0126709,-3.8708124,-0.08230225,0.21878716,1.2169814,-4.038089,0.25448832,0.61001635,1.096937,-3.2491505,0.26633647,1.0328315,1.0527841,-3.475248,-0.066947795,0.8797542,768.3883,531.8681,805.05493,761.9414,708.3516,0.0,0.0,-0.070068359375,0.002685546875,0.98199462890625,1.55517578125,-3.78326416015625,4.104766845703125,1884908.424908425,95465494.5054945,36702124.54212454,70.09482,1.0,1.0,4.0,1.0,1.0,40.0,/muse/elements/jaw_clench,0 days 00:00:00.001000
2023-11-16 11:42:50.896,1.4566671,-3.7571816,0.20910592,0.65991664,1.0126709,-3.8708124,-0.08230225,0.21878716,1.2169814,-4.038089,0.25448832,0.61001635,1.096937,-3.2491505,0.26633647,1.0328315,1.0527841,-3.475248,-0.066947795,0.8797542,768.3883,531.8681,805.05493,761.9414,708.3516,0.0,0.0,-0.070068359375,0.002685546875,0.98199462890625,1.55517578125,-3.78326416015625,4.104766845703125,1884908.424908425,95465494.5054945,36702124.54212454,70.09482,1.0,1.0,4.0,1.0,1.0,40.0,/muse/elements/jaw_clench,0 days 00:00:00.002000
2023-11-16 11:42:50.894,1.4566671,-3.7571816,0.21000285,0.6529829,1.0126709,-3.8708124,-0.061215933,0.19870766,1.2169814,-4.038089,0.17218436,0.60671216,1.096937,-3.2491505,0.2567263,1.0309715,1.0527841,-3.475248,-0.046047326,0.86635816,796.99634,329.19415,804.65204,774.43225,847.76556,0.0,0.0,-0.070068359375,0.002685546875,0.98199462890625,1.55517578125,-3.78326416015625,4.104766845703125,1884908.424908425,95465494.5054945,36702124.54212454,70.09482,1.0,1.0,4.0,1.0,1.0,40.0,/muse/elements/jaw_clench,-1 days +23:59:59.998000
2023-11-16 11:42:50.921,1.4566671,-3.7571816,0.21000285,0.6529829,1.0126709,-3.8708124,-0.061215933,0.19870766,1.2169814,-4.038089,0.17218436,0.60671216,1.096937,-3.2491505,0.2567263,1.0309715,1.0527841,-3.475248,-0.046047326,0.86635816,791.75824,524.61536,799.81683,777.6557,833.663,0.0,0.0,-0.09625244140625,-0.0172119140625,1.01153564453125,2.100982666015625,-5.854339599609375,2.6617431640625,1884908.424908425,95465494.5054945,36702124.54212454,70.09482,1.0,1.0,4.0,1.0,1.0,40.0,/muse/elements/jaw_clench,0 days 00:00:00.027000
2023-11-16 11:42:50.922,1.4566671,-3.7571816,0.21000285,0.6529829,1.0126709,-3.8708124,-0.061215933,0.19870766,1.2169814,-4.038089,0.17218436,0.60671216,1.096937,-3.2491505,0.2567263,1.0309715,1.0527841,-3.475248,-0.046047326,0.86635816,771.6117,803.44324,794.57874,763.1502,732.9304,0.0,0.0,-0.09625244140625,-0.0172119140625,1.01153564453125,2.100982666015625,-5.854339599609375,2.6617431640625,1884908.424908425,95465494.5054945,36702124.54212454,70.09482,1.0,1.0,4.0,1.0,1.0,40.0,/muse/elements/jaw_clench,0 days 00:00:00.001000
2023-11-16 11:42:50.922,1.4566671,-3.7571816,0.21000285,0.6529829,1.0126709,-3.8708124,-0.061215933,0.19870766,1.2169814,-4.038089,0.17218436,0.60671216,1.096937,-3.2491505,0.2567263,1.0309715,1.0527841,-3.475248,-0.046047326,0.86635816,780.07324,519.7802,801.02563,780.87915,783.69965,0.0,0.0,-0.09625244140625,-0.0172119140625,1.01153564453125,2.100982666015625,-5.854339599609375,2.6617431640625,1884908.424908425,95465494.5054945,36702124.54212454,70.09482,1.0,1.0,4.0,1.0,1.0,40.0,/muse/elements/jaw_clench,0 days 00:00:00
2023-11-16 11:42:50.923,1.4566671,-3.7571816,0.21000285,0.6529829,1.0126709,-3.8708124,-0.061215933,0.19870766,1.2169814,-4.038089,0.17218436,0.60671216,1.096937,-3.2491505,0.2567263,1.0309715,1.0527841,-3.475248,-0.046047326,0.86635816,770.40295,529.85345,806.6667,802.6374,842.52747,0.0,0.0,-0.09625244140625,-0.0172119140625,1.01153564453125,2.100982666015625,-5.854339599609375,2.6617431640625,1884908.424908425,95465494.5054945,36702124.54212454,70.09482,1.0,1.0,4.0,1.0,1.0,40.0,/muse/elements/jaw_clench,0 days 00:00:00.001000
2023-11-16 11:42:50.923,1.4566671,-3.7571816,0.21000285,0.6529829,1.0126709,-3.8708124,-0.061215933,0.19870766,1.2169814,-4.038089,0.17218436,0.60671216,1.096937,-3.2491505,0.2567263,1.0309715,1.0527841,-3.475248,-0.046047326,0.86635816,787.326,846.9597,799.011,794.9817,840.9158,0.0,0.0,-0.09625244140625,-0.0172119140625,1.01153564453125,2.100982666015625,-5.854339599609375,2.6617431640625,1884908.424908425,95465494.5054945,36702124.54212454,70.09482,1.0,1.0,4.0,1.0,1.0,40.0,/muse/elements/jaw_clench,0 days 00:00:00
2023-11-16 11:42:50.924,1.4566671,-3.7571816,0.21000285,0.6529829,1.0126709,-3.8708124,-0.061215933,0.19870766,1.2169814,-4.038089,0.17218436,0.60671216,1.096937,-3.2491505,0.2567263,1.0309715,1.0527841,-3.475248,-0.046047326,0.86635816,788.93774,711.5751,796.5934,785.31134,762.3443,0.0,0.0,-0.09625244140625,-0.0172119140625,1.01153564453125,2.100982666015625,-5.854339599609375,2.6617431640625,1884908.424908425,95465494.5054945,36702124.54212454,70.09482,1.0,1.0,4.0,1.0,1.0,40.0,/muse/elements/jaw_clench,0 days 00:00:00.001000
2023-11-16 11:42:50.924,1.4566671,-3.7571816,0.21000285,0.6529829,1.0126709,-3.8708124,-0.061215933,0.19870766,1.2169814,-4.038089,0.17218436,0.60671216,1.096937,-3.2491505,0.2567263,1.0309715,1.0527841,-3.475248,-0.046047326,0.86635816,782.8938,411.39194,801.8315,792.5641,784.5055,0.0,0.0,-0.09625244140625,-0.0172119140625,1.01153564453125,2.100982666015625,-5.854339599609375,2.6617431640625,1884908.424908425,95465494.5054945,36702124.54212454,70.09482,1.0,1.0,4.0,1.0,1.0,40.0,/muse/elements/jaw_clench,0 days 00:00:00
2023-11-16 11:42:50.924,1.4566671,-3.7571816,0.21000285,0.6529829,1.0126709,-3.8708124,-0.061215933,0.19870766,1.2169814,-4.038089,0.17218436,0.60671216,1.096937,-3.2491505,0.2567263,1.0309715,1.0527841,-3.475248,-0.046047326,0.86635816,804.2491,74.54212,806.26373,808.2784,938.022,0.0,0.0,-0.09625244140625,-0.0172119140625,1.01153564453125,2.100982666015625,-5.854339599609375,2.6617431640625,1884908.424908425,95465494.5054945,36702124.54212454,70.09482,1.0,1.0,4.0,1.0,1.0,40.0,/muse/elements/jaw_clench,0 days 00:00:00
2023-11-16 11:42:50.925,1.4566671,-3.7571816,0.21000285,0.6529829,1.0126709,-3.8708124,-0.061215933,0.19870766,1.2169814,-4.038089,0.17218436,0.60671216,1.096937,-3.2491505,0.2567263,1.0309715,1.0527841,-3.475248,-0.046047326,0.86635816,790.9524,315.89743,800.2198,786.52014,891.685,0.0,0.0,-0.09625244140625,-0.0172119140625,1.01153564453125,2.100982666015625,-5.854339599609375,2.6617431640625,1884908.424908425,95465494.5054945,36702124.54212454,70.09482,1.0,1.0,4.0,1.0,1.0,40.0,/muse/elements/jaw_clench,0 days 00:00:00.001000
2023-11-16 11:42:50.925,1.4566671,-3.7571816,0.21000285,0.6529829,1.0126709,-3.8708124,-0.061215933,0.19870766,1.2169814,-4.038089,0.17218436,0.60671216,1.096937,-3.2491505,0.2567263,1.0309715,1.0527841,-3.475248,-0.046047326,0.86635816,762.3443,958.97437,796.1905,776.04395,700.696,0.0,0.0,-0.09625244140625,-0.0172119140625,1.01153564453125,2.100982666015625,-5.854339599609375,2.6617431640625,1884908.424908425,95465494.5054945,36702124.54212454,70.09482,1.0,1.0,4.0,1.0,1.0,40.0,/muse/elements/jaw_clench,0 days 00:00:00
2023-11-16 11:42:50.925,1.4566671,-3.7571816,0.21000285,0.6529829,1.0126709,-3.8708124,-0.061215933,0.19870766,1.2169814,-4.038089,0.17218436,0.60671216,1.096937,-3.2491505,0.2567263,1.0309715,1.0527841,-3.475248,-0.046047326,0.86635816,776.04395,664.83514,806.26373,778.86444,718.8278,0.0,0.0,-0.09625244140625,-0.0172119140625,1.01153564453125,2.100982666015625,-5.854339599609375,2.6617431640625,1884908.424908425,95465494.5054945,36702124.54212454,70.09482,1.0,1.0,4.0,1.0,1.0,40.0,/muse/elements/jaw_clench,0 days 00:00:00
2023-11-16 11:42:50.926,1.4566671,-3.7571816,0.21000285,0.6529829,1.0126709,-3.8708124,-0.061215933,0.19870766,1.2169814,-4.038089,0.17218436,0.60671216,1.096937,-3.2491505,0.2567263,1.0309715,1.0527841,-3.475248,-0.046047326,0.86635816,779.67035,400.91574,799.81683,759.92676,761.9414,0.0,0.0,-0.09625244140625,-0.0172119140625,1.01153564453125,2.100982666015625,-5.854339599609375,2.6617431640625,1884908.424908425,95465494.5054945,36702124.54212454,70.09482,1.0,1.0,4.0,1.0,1.0,40.0,/muse/elements/jaw_clench,0 days 00:00:00.001000
2023-11-16 11:42:50.989,1.4566671,-3.7571816,0.21000285,0.6529829,1.0126709,-3.8708124,-0.061215933,0.19870766,1.2169814,-4.038089,0.17218436,0.60671216,1.096937,-3.2491505,0.2567263,1.0309715,1.0527841,-3.475248,-0.046047326,0.86635816,782.0879,693.44324,792.96704,778.86444,748.24176,0.0,0.0,-0.09625244140625,-0.0172119140625,1.01153564453125,2.100982666015625,-5.854339599609375,2.6617431640625,1870402.9304029304,95260000.0,36658608.058608055,70.09482,1.0,1.0,4.0,1.0,1.0,40.0,/muse/elements/jaw_clench,0 days 00:00:00.063000
2023-11-16 11:42:50.990,1.4566671,-3.7571816,0.21000285,0.6529829,1.0126709,-3.8708124,-0.061215933,0.19870766,1.2169814,-4.038089,0.17218436,0.60671216,1.096937,-3.2491505,0.2567263,1.0309715,1.0527841,-3.475248,-0.046047326,0.86635816,796.99634,938.022,791.3553,762.74725,742.6007,0.0,0.0,-0.09625244140625,-0.0172119140625,1.01153564453125,2.100982666015625,-5.854339599609375,2.6617431640625,1870402.9304029304,95260000.0,36658608.058608055,70.09482,1.0,1.0,4.0,1.0,1.0,40.0,/muse/elements/jaw_clench,0 days 00:00:00.001000
2023-11-16 11:42:50.990,1.4566671,-3.7571816,0.21000285,0.6529829,1.0126709,-3.8708124,-0.061215933,0.19870766,1.2169814,-4.038089,0.17218436,0.60671216,1.096937,-3.2491505,0.2567263,1.0309715,1.0527841,-3.475248,-0.046047326,0.86635816,774.83514,542.3443,792.5641,749.85345,771.2088,0.0,0.0,-0.09625244140625,-0.0172119140625,1.01153564453125,2.100982666015625,-5.854339599609375,2.6617431640625,1870402.9304029304,95260000.0,36658608.058608055,70.09482,1.0,1.0,4.0,1.0,1.0,40.0,/muse/elements/jaw_clench,0 days 00:00:00
2023-11-16 11:42:50.990,1.4566671,-3.7571816,0.21000285,0.6529829,1.0126709,-3.8708124,-0.061215933,0.19870766,1.2169814,-4.038089,0.17218436,0.60671216,1.096937,-3.2491505,0.2567263,1.0309715,1.0527841,-3.475248,-0.046047326,0.86635816,772.01465,299.7802,801.8315,778.86444,712.7839,0.0,0.0,-0.09625244140625,-0.0172119140625,1.01153564453125,2.100982666015625,-5.854339599609375,2.6617431640625,1870402.9304029304,95260000.0,36658608.058608055,70.09482,1.0,1.0,4.0,1.0,1.0,40.0,/muse/elements/jaw_clench,0 days 00:00:00
2023-11-16 11:42:50.991,1.4566671,-3.7571816,0.21000285,0.6529829,1.0126709,-3.8708124,-0.061215933,0.19870766,1.2169814,-4.038089,0.17218436,0.60671216,1.096937,-3.2491505,0.2567263,1.0309715,1.0527841,-3.475248,-0.046047326,0.86635816,801.02563,570.9524,805.05493,799.011,732.9304,0.0,0.0,-0.09625244140625,-0.0172119140625,1.01153564453125,2.100982666015625,-5.854339599609375,2.6617431640625,1870402.9304029304,95260000.0,36658608.058608055,70.09482,1.0,1.0,4.0,1.0,1.0,40.0,/muse/elements/jaw_clench,0 days 00:00:00.001000
2023-11-16 11:42:50.991,1.4566671,-3.7571816,0.21000285,0.6529829,1.0126709,-3.8708124,-0.061215933,0.19870766,1.2169814,-4.038089,0.17218436,0.60671216,1.096937,-3.2491505,0.2567263,1.0309715,1.0527841,-3.475248,-0.046047326,0.86635816,792.1612,460.54944,803.0403,776.04395,743.00366,0.0,0.0,-0.09625244140625,-0.0172119140625,1.01153564453125,2.100982666015625,-5.854339599609375,2.6617431640625,1870402.9304029304,95260000.0,36658608.058608055,70.09482,1.0,1.0,4.0,1.0,1.0,40.0,/muse/elements/jaw_clench,0 days 00:00:00
2023-11-16 11:42:50.992,1.4566671,-3.7571816,0.21000285,0.6529829,1.0126709,-3.8708124,-0.061215933,0.19870766,1.2169814,-4.038089,0.17218436,0.60671216,1.096937,-3.2491505,0.2567263,1.0309715,1.0527841,-3.475248,-0.046047326,0.86635816,782.0879,142.23444,808.2784,800.6227,876.77655,0.0,0.0,-0.09625244140625,-0.0172119140625,1.01153564453125,2.100982666015625,-5.854339599609375,2.6617431640625,1870402.9304029304,95260000.0,36658608.058608055,70.09482,1.0,1.0,4.0,1.0,1.0,40.0,/muse/elements/jaw_clench,0 days 00:00:00.001000
2023-11-16 11:42:50.992,1.4566671,-3.7571816,0.21000285,0.6529829,1.0126709,-3.8708124,-0.061215933,0.19870766,1.2169814,-4.038089,0.17218436,0.60671216,1.096937,-3.2491505,0.2567263,1.0309715,1.0527841,-3.475248,-0.046047326,0.86635816,806.6667,27.399267,812.71063,824.7985,1108.0586,0.0,0.0,-0.09625244140625,-0.0172119140625,1.01153564453125,2.100982666015625,-5.854339599609375,2.6617431640625,1870402.9304029304,95260000.0,36658608.058608055,70.09482,1.0,1.0,4.0,1.0,1.0,40.0,/muse/elements/jaw_clench,0 days 00:00:00
2023-11-16 11:42:50.992,1.4566671,-3.7571816,0.21000285,0.6529829,1.0126709,-3.8708124,-0.061215933,0.19870766,1.2169814,-4.038089,0.17218436,0.60671216,1.096937,-3.2491505,0.2567263,1.0309715,1.0527841,-3.475248,-0.046047326,0.86635816,811.50183,417.43588,798.20514,768.7912,823.1868,0.0,0.0,-0.09625244140625,-0.0172119140625,1.01153564453125,2.100982666015625,-5.854339599609375,2.6617431640625,1870402.9304029304,95260000.0,36658608.058608055,70.09482,1.0,1.0,4.0,1.0,1.0,40.0,/muse/elements/jaw_clench,0 days 00:00:00
2023-11-16 11:42:50.993,1.4566671,-3.7571816,0.21000285,0.6529829,1.0126709,-3.8708124,-0.061215933,0.19870766,1.2169814,-4.038089,0.17218436,0.60671216,1.096937,-3.2491505,0.2567263,1.0309715,1.0527841,-3.475248,-0.046047326,0.86635816,786.52014,491.97803,793.7729,761.13556,707.1429,0.0,0.0,-0.09625244140625,-0.0172119140625,1.01153564453125,2.100982666015625,-5.854339599609375,2.6617431640625,1870402.9304029304,95260000.0,36658608.058608055,70.09482,1.0,1.0,4.0,1.0,1.0,40.0,/muse/elements/jaw_clench,0 days 00:00:00.001000
2023-11-16 11:42:50.993,1.4566671,-3.7571816,0.21000285,0.6529829,1.0126709,-3.8708124,-0.061215933,0.19870766,1.2169814,-4.038089,0.17218436,0.60671216,1.096937,-3.2491505,0.2567263,1.0309715,1.0527841,-3.475248,-0.046047326,0.86635816,796.99634,160.3663,808.2784,788.5348,865.09155,0.0,0.0,-0.09625244140625,-0.0172119140625,1.01153564453125,2.100982666015625,-5.854339599609375,2.6617431640625,1870402.9304029304,95260000.0,36658608.058608055,70.09482,1.0,1.0,4.0,1.0,1.0,40.0,/muse/elements/jaw_clench,0 days 00:00:00
2023-11-16 11:42:50.993,1.4566671,-3.7571816,0.21000285,0.6529829,1.0126709,-3.8708124,-0.061215933,0.19870766,1.2169814,-4.038089,0.17218436,0.60671216,1.096937,-3.2491505,0.2567263,1.0309715,1.0527841,-3.475248,-0.046047326,0.86635816,788.5348,261.0989,805.4579,794.57874,832.8571,0.0,0.0,-0.09625244140625,-0.0172119140625,1.01153564453125,2.100982666015625,-5.854339599609375,2.6617431640625,1870402.9304029304,95260000.0,36658608.058608055,70.09482,1.0,1.0,4.0,1.0,1.0,40.0,/muse/elements/jaw_clench,0 days 00:00:00
2023-11-16 11:42:51.049,1.4566671,-3.7571816,0.21000285,0.6529829,1.0126709,-3.8708124,-0.061215933,0.19870766,1.2169814,-4.038089,0.17218436,0.60671216,1.096937,-3.2491505,0.2567263,1.0309715,1.0527841,-3.475248,-0.046047326,0.86635816,778.0586,642.27106,791.3553,786.1172,731.7216,0.0,0.0,-0.06024169921875,0.00091552734375,0.9990234375,3.66363525390625,-4.673004150390625,2.848663330078125,1870402.9304029304,95260000.0,36658608.058608055,70.09482,1.0,1.0,4.0,1.0,1.0,40.0,/muse/elements/jaw_clench,0 days 00:00:00.056000
2023-11-16 11:42:51.050,1.4566671,-3.7571816,0.22222345,0.6554354,1.0126709,-3.8708124,-0.0400163,0.18802816,1.2169814,-4.038089,0.1685418,0.60592467,1.096937,-3.2491505,0.25677326,1.0343885,1.0527841,-3.475248,-0.021201678,0.84841657,796.99634,601.978,794.9817,790.54944,730.5128,0.0,0.0,-0.06024169921875,0.00091552734375,0.9990234375,3.66363525390625,-4.673004150390625,2.848663330078125,1870402.9304029304,95260000.0,36658608.058608055,70.09482,1.0,1.0,4.0,1.0,1.0,40.0,/muse/elements/jaw_clench,0 days 00:00:00.001000
2023-11-16 11:42:51.053,1.4566671,-3.7571816,0.22222345,0.6554354,1.0126709,-3.8708124,-0.0400163,0.18802816,1.2169814,-4.038089,0.1685418,0.60592467,1.096937,-3.2491505,0.25677326,1.0343885,1.0527841,-3.475248,-0.021201678,0.84841657,813.5165,399.30402,801.02563,796.99634,770.40295,0.0,0.0,-0.06024169921875,0.00091552734375,0.9990234375,3.66363525390625,-4.673004150390625,2.848663330078125,1870402.9304029304,95260000.0,36658608.058608055,70.09482,1.0,1.0,4.0,1.0,1.0,40.0,/muse/elements/jaw_clench,0 days 00:00:00.003000
2023-11-16 11:42:51.054,1.4566671,-3.7571816,0.22222345,0.6554354,1.0126709,-3.8708124,-0.0400163,0.18802816,1.2169814,-4.038089,0.1685418,0.60592467,1.096937,-3.2491505,0.25677326,1.0343885,1.0527841,-3.475248,-0.021201678,0.84841657,809.4872,459.34067,802.23444,798.20514,735.34796,0.0,0.0,-0.06024169921875,0.00091552734375,0.9990234375,3.66363525390625,-4.673004150390625,2.848663330078125,1870402.9304029304,95260000.0,36658608.058608055,70.09482,1.0,1.0,4.0,1.0,1.0,40.0,/muse/elements/jaw_clench,0 days 00:00:00.001000
2023-11-16 11:42:51.054,1.4566671,-3.7571816,0.22222345,0.6554354,1.0126709,-3.8708124,-0.0400163,0.18802816,1.2169814,-4.038089,0.1685418,0.60592467,1.096937,-3.2491505,0.25677326,1.0343885,1.0527841,-3.475248,-0.021201678,0.84841657,796.1905,523.4066,801.02563,797.8022,686.1905,0.0,0.0,-0.06024169921875,0.00091552734375,0.9990234375,3.66363525390625,-4.673004150390625,2.848663330078125,1870402.9304029304,95260000.0,36658608.058608055,70.09482,1.0,1.0,4.0,1.0,1.0,40.0,/muse/elements/jaw_clench,0 days 00:00:00
2023-11-16 11:42:51.055,1.4566671,-3.7571816,0.22222345,0.6554354,1.0126709,-3.8708124,-0.0400163,0.18802816,1.2169814,-4.038089,0.1685418,0.60592467,1.096937,-3.2491505,0.25677326,1.0343885,1.0527841,-3.475248,-0.021201678,0.84841657,795.78754,302.1978,810.696,807.47253,763.95605,0.0,0.0,-0.06024169921875,0.00091552734375,0.9990234375,3.66363525390625,-4.673004150390625,2.848663330078125,1870402.9304029304,95260000.0,36658608.058608055,70.09482,1.0,1.0,4.0,1.0,1.0,40.0,/muse/elements/jaw_clench,0 days 00:00:00.001000
2023-11-16 11:42:51.055,1.4566671,-3.7571816,0.22222345,0.6554354,1.0126709,-3.8708124,-0.0400163,0.18802816,1.2169814,-4.038089,0.1685418,0.60592467,1.096937,-3.2491505,0.25677326,1.0343885,1.0527841,-3.475248,-0.021201678,0.84841657,786.52014,80.18315,821.978,834.87177,972.27106,0.0,0.0,-0.06024169921875,0.00091552734375,0.9990234375,3.66363525390625,-4.673004150390625,2.848663330078125,1870402.9304029304,95260000.0,36658608.058608055,70.09482,1.0,1.0,4.0,1.0,1.0,40.0,/muse/elements/jaw_clench,0 days 00:00:00
2023-11-16 11:42:51.056,1.4566671,-3.7571816,0.22222345,0.6554354,1.0126709,-3.8708124,-0.0400163,0.18802816,1.2169814,-4.038089,0.1685418,0.60592467,1.096937,-3.2491505,0.25677326,1.0343885,1.0527841,-3.475248,-0.021201678,0.84841657,803.8461,134.98169,813.5165,811.50183,905.38464,0.0,0.0,-0.06024169921875,0.00091552734375,0.9990234375,3.66363525390625,-4.673004150390625,2.848663330078125,1870402.9304029304,95260000.0,36658608.058608055,70.09482,1.0,1.0,4.0,1.0,1.0,40.0,/muse/elements/jaw_clench,0 days 00:00:00.001000
2023-11-16 11:42:51.056,1.4566671,-3.7571816,0.22222345,0.6554354,1.0126709,-3.8708124,-0.0400163,0.18802816,1.2169814,-4.038089,0.1685418,0.60592467,1.096937,-3.2491505,0.25677326,1.0343885,1.0527841,-3.475248,-0.021201678,0.84841657,775.64105,341.28204,805.8608,756.30035,777.6557,0.0,0.0,-0.06024169921875,0.00091552734375,0.9990234375,3.66363525390625,-4.673004150390625,2.848663330078125,1870402.9304029304,95260000.0,36658608.058608055,70.09482,1.0,1.0,4.0,1.0,1.0,40.0,/muse/elements/jaw_clench,0 days 00:00:00
2023-11-16 11:42:51.057,1.4566671,-3.7571816,0.22222345,0.6554354,1.0126709,-3.8708124,-0.0400163,0.18802816,1.2169814,-4.038089,0.1685418,0.60592467,1.096937,-3.2491505,0.25677326,1.0343885,1.0527841,-3.475248,-0.021201678,0.84841657,789.7436,329.19415,807.47253,758.71796,815.9341,0.0,0.0,-0.06024169921875,0.00091552734375,0.9990234375,3.66363525390625,-4.673004150390625,2.848663330078125,1870402.9304029304,95260000.0,36658608.058608055,70.09482,1.0,1.0,4.0,1.0,1.0,40.0,/muse/elements/jaw_clench,0 days 00:00:00.001000
2023-11-16 11:42:51.057,1.4566671,-3.7571816,0.22222345,0.6554354,1.0126709,-3.8708124,-0.0400163,0.18802816,1.2169814,-4.038089,0.1685418,0.60592467,1.096937,-3.2491505,0.25677326,1.0343885,1.0527841,-3.475248,-0.021201678,0.84841657,823.5897,153.51648,811.50183,788.93774,856.63007,0.0,0.0,-0.06024169921875,0.00091552734375,0.9990234375,3.66363525390625,-4.673004150390625,2.848663330078125,1870402.9304029304,95260000.0,36658608.058608055,70.09482,1.0,1.0,4.0,1.0,1.0,40.0,/muse/elements/jaw_clench,0 days 00:00:00
2023-11-16 11:42:51.058,1.4566671,-3.7571816,0.22222345,0.6554354,1.0126709,-3.8708124,-0.0400163,0.18802816,1.2169814,-4.038089,0.1685418,0.60592467,1.096937,-3.2491505,0.25677326,1.0343885,1.0527841,-3.475248,-0.021201678,0.84841657,776.8498,397.69232,811.50183,797.8022,720.84247,0.0,0.0,-0.06024169921875,0.00091552734375,0.9990234375,3.66363525390625,-4.673004150390625,2.848663330078125,1870402.9304029304,95260000.0,36658608.058608055,70.09482,1.0,1.0,4.0,1.0,1.0,40.0,/muse/elements/jaw_clench,0 days 00:00:00.001000
2023-11-16 11:42:51.088,1.4566671,-3.7571816,0.22222345,0.6554354,1.0126709,-3.8708124,-0.0400163,0.18802816,1.2169814,-4.038089,0.1685418,0.60592467,1.096937,-3.2491505,0.25677326,1.0343885,1.0527841,-3.475248,-0.021201678,0.84841657,772.4176,478.27838,810.696,819.15753,645.89746,0.0,0.0,-0.0836181640625,0.00811767578125,1.01446533203125,1.375732421875,-3.028106689453125,5.091705322265625,1856703.2967032967,95156043.95604396,36653772.89377289,70.09482,1.0,1.0,4.0,1.0,1.0,40.0,/muse/elements/jaw_clench,0 days 00:00:00.030000
2023-11-16 11:42:51.089,1.4566671,-3.7571816,0.22222345,0.6554354,1.0126709,-3.8708124,-0.0400163,0.18802816,1.2169814,-4.038089,0.1685418,0.60592467,1.096937,-3.2491505,0.25677326,1.0343885,1.0527841,-3.475248,-0.021201678,0.84841657,796.5934,273.58975,814.7253,819.9634,726.8865,0.0,0.0,-0.0836181640625,0.00811767578125,1.01446533203125,1.375732421875,-3.028106689453125,5.091705322265625,1856703.2967032967,95156043.95604396,36653772.89377289,70.09482,1.0,1.0,4.0,1.0,1.0,40.0,/muse/elements/jaw_clench,0 days 00:00:00.001000
2023-11-16 11:42:51.089,1.4566671,-3.7571816,0.22222345,0.6554354,1.0126709,-3.8708124,-0.0400163,0.18802816,1.2169814,-4.038089,0.1685418,0.60592467,1.096937,-3.2491505,0.25677326,1.0343885,1.0527841,-3.475248,-0.021201678,0.84841657,790.9524,302.1978,813.91943,773.22345,732.1245,0.0,0.0,-0.0836181640625,0.00811767578125,1.01446533203125,1.375732421875,-3.028106689453125,5.091705322265625,1856703.2967032967,95156043.95604396,36653772.89377289,70.09482,1.0,1.0,4.0,1.0,1.0,40.0,/muse/elements/jaw_clench,0 days 00:00:00
2023-11-16 11:42:51.090,1.4566671,-3.7571816,0.22222345,0.6554354,1.0126709,-3.8708124,-0.0400163,0.18802816,1.2169814,-4.038089,0.1685418,0.60592467,1.096937,-3.2491505,0.25677326,1.0343885,1.0527841,-3.475248,-0.021201678,0.84841657,779.67035,572.1612,810.293,788.93774,732.52747,0.0,0.0,-0.0836181640625,0.00811767578125,1.01446533203125,1.375732421875,-3.028106689453125,5.091705322265625,1856703.2967032967,95156043.95604396,36653772.89377289,70.09482,1.0,1.0,4.0,1.0,1.0,40.0,/muse/elements/jaw_clench,0 days 00:00:00.001000
2023-11-16 11:42:51.090,1.4566671,-3.7571816,0.22222345,0.6554354,1.0126709,-3.8708124,-0.0400163,0.18802816,1.2169814,-4.038089,0.1685418,0.60592467,1.096937,-3.2491505,0.25677326,1.0343885,1.0527841,-3.475248,-0.021201678,0.84841657,792.96704,497.21613,814.3223,806.6667,737.3626,0.0,0.0,-0.0836181640625,0.00811767578125,1.01446533203125,1.375732421875,-3.028106689453125,5.091705322265625,1856703.2967032967,95156043.95604396,36653772.89377289,70.09482,1.0,1.0,4.0,1.0,1.0,40.0,/muse/elements/jaw_clench,0 days 00:00:00
2023-11-16 11:42:51.091,1.4566671,-3.7571816,0.22222345,0.6554354,1.0126709,-3.8708124,-0.0400163,0.18802816,1.2169814,-4.038089,0.1685418,0.60592467,1.096937,-3.2491505,0.25677326,1.0343885,1.0527841,-3.475248,-0.021201678,0.84841657,790.9524,133.77289,817.1429,796.1905,773.22345,0.0,0.0,-0.0836181640625,0.00811767578125,1.01446533203125,1.375732421875,-3.028106689453125,5.091705322265625,1856703.2967032967,95156043.95604396,36653772.89377289,70.09482,1.0,1.0,4.0,1.0,1.0,40.0,/muse/elements/jaw_clench,0 days 00:00:00.001000
2023-11-16 11:42:51.091,1.4566671,-3.7571816,0.22222345,0.6554354,1.0126709,-3.8708124,-0.0400163,0.18802816,1.2169814,-4.038089,0.1685418,0.60592467,1.096937,-3.2491505,0.25677326,1.0343885,1.0527841,-3.475248,-0.021201678,0.84841657,798.60803,37.472527,805.8608,771.6117,860.65936,0.0,0.0,-0.0836181640625,0.00811767578125,1.01446533203125,1.375732421875,-3.028106689453125,5.091705322265625,1856703.2967032967,95156043.95604396,36653772.89377289,70.09482,1.0,1.0,4.0,1.0,1.0,40.0,/muse/elements/jaw_clench,0 days 00:00:00
2023-11-16 11:42:51.092,1.4566671,-3.7571816,0.22222345,0.6554354,1.0126709,-3.8708124,-0.0400163,0.18802816,1.2169814,-4.038089,0.1685418,0.60592467,1.096937,-3.2491505,0.25677326,1.0343885,1.0527841,-3.475248,-0.021201678,0.84841657,794.9817,346.92307,796.5934,753.47986,813.1135,0.0,0.0,-0.0836181640625,0.00811767578125,1.01446533203125,1.375732421875,-3.028106689453125,5.091705322265625,1856703.2967032967,95156043.95604396,36653772.89377289,70.09482,1.0,1.0,4.0,1.0,1.0,40.0,/muse/elements/jaw_clench,0 days 00:00:00.001000
2023-11-16 11:42:51.092,1.4566671,-3.7571816,0.22222345,0.6554354,1.0126709,-3.8708124,-0.0400163,0.18802816,1.2169814,-4.038089,0.1685418,0.60592467,1.096937,-3.2491505,0.25677326,1.0343885,1.0527841,-3.475248,-0.021201678,0.84841657,761.9414,460.1465,801.02563,776.04395,673.2967,0.0,0.0,-0.0836181640625,0.00811767578125,1.01446533203125,1.375732421875,-3.028106689453125,5.091705322265625,1856703.2967032967,95156043.95604396,36653772.89377289,70.09482,1.0,1.0,4.0,1.0,1.0,40.0,/muse/elements/jaw_clench,0 days 00:00:00
2023-11-16 11:42:51.093,1.4566671,-3.7571816,0.22222345,0.6554354,1.0126709,-3.8708124,-0.0400163,0.18802816,1.2169814,-4.038089,0.1685418,0.60592467,1.096937,-3.2491505,0.25677326,1.0343885,1.0527841,-3.475248,-0.021201678,0.84841657,777.25275,121.68498,815.5311,803.8461,787.326,0.0,0.0,-0.0836181640625,0.00811767578125,1.01446533203125,1.375732421875,-3.028106689453125,5.091705322265625,1856703.2967032967,95156043.95604396,36653772.89377289,70.09482,1.0,1.0,4.0,1.0,1.0,40.0,/muse/elements/jaw_clench,0 days 00:00:00.001000
2023-11-16 11:42:51.093,1.4566671,-3.7571816,0.22222345,0.6554354,1.0126709,-3.8708124,-0.0400163,0.18802816,1.2169814,-4.038089,0.1685418,0.60592467,1.096937,-3.2491505,0.25677326,1.0343885,1.0527841,-3.475248,-0.021201678,0.84841657,780.4762,105.567764,813.1135,796.99634,980.32965,0.0,0.0,-0.0836181640625,0.00811767578125,1.01446533203125,1.375732421875,-3.028106689453125,5.091705322265625,1856703.2967032967,95156043.95604396,36653772.89377289,70.09482,1.0,1.0,4.0,1.0,1.0,40.0,/muse/elements/jaw_clench,0 days 00:00:00
2023-11-16 11:42:51.094,1.4566671,-3.7571816,0.22222345,0.6554354,1.0126709,-3.8708124,-0.0400163,0.18802816,1.2169814,-4.038089,0.1685418,0.60592467,1.096937,-3.2491505,0.25677326,1.0343885,1.0527841,-3.475248,-0.021201678,0.84841657,783.69965,392.85715,793.36993,780.4762,831.2454,0.0,0.0,-0.0836181640625,0.00811767578125,1.01446533203125,1.375732421875,-3.028106689453125,5.091705322265625,1856703.2967032967,95156043.95604396,36653772.89377289,70.09482,1.0,1.0,4.0,1.0,1.0,40.0,/muse/elements/jaw_clench,0 days 00:00:00.001000
2023-11-16 11:42:51.117,1.4566671,-3.7571816,0.22222345,0.6554354,1.0126709,-3.8708124,-0.0400163,0.18802816,1.2169814,-4.038089,0.1685418,0.60592467,1.096937,-3.2491505,0.25677326,1.0343885,1.0527841,-3.475248,-0.021201678,0.84841657,782.8938,434.7619,791.75824,792.5641,712.7839,0.0,0.0,-0.0906982421875,-0.010986328125,1.013671875,-2.355194091796875,-1.74957275390625,3.342132568359375,1856703.2967032967,95156043.95604396,36653772.89377289,70.09482,1.0,1.0,4.0,1.0,1.0,40.0,/muse/elements/jaw_clench,0 days 00:00:00.023000
