TimeStamp,Delta_TP9,Delta_AF7,Delta_AF8,Delta_TP10,Theta_TP9,Theta_AF7,Theta_AF8,Theta_TP10,Alpha_TP9,Alpha_AF7,Alpha_AF8,Alpha_TP10,Beta_TP9,Beta_AF7,Beta_AF8,Beta_TP10,Gamma_TP9,Gamma_AF7,Gamma_AF8,Gamma_TP10,RAW_TP9,RAW_AF7,RAW_AF8,RAW_TP10,AUX_RIGHT,Mellow,Concentration,Accelerometer_X,Accelerometer_Y,Accelerometer_Z,Gyro_X,Gyro_Y,Gyro_Z,PPG_Ambient,PPG_IR,PPG_Red,Heart_Rate,HeadBandOn,HSI_TP9,HSI_AF7,HSI_AF8,HSI_TP10,Battery,Elements,TimeDifference
2023-11-16 11:18:12.807,0.862561,0.46417475,0.72566044,1.4167876,1.0441674,0.2894524,0.09432811,0.687794,0.25866097,-0.04013369,0.5083595,0.6193968,1.0004647,0.094271295,0.12724884,0.79044783,0.8954941,-0.16687313,0.026393797,0.40989995,682.1612,790.14655,778.0586,774.43225,823.9927,0.0,0.0,0.141357421875,0.0562744140625,1.00042724609375,2.923431396484375,-4.344024658203125,1.1065673828125,1482783.8827838828,99747032.96703295,56454578.754578754,86.06388,1.0,1.0,1.0,1.0,1.0,50.0,,0 days 00:00:00.060000
2023-11-16 11:18:12.808,0.862561,0.46417475,0.72566044,1.4167876,1.0441674,0.2894524,0.09432811,0.687794,0.25866097,-0.04013369,0.5083595,0.6193968,1.0004647,0.094271295,0.12724884,0.79044783,0.8954941,-0.16687313,0.026393797,0.40989995,704.7253,794.57874,777.6557,785.31134,844.94507,0.0,0.0,0.141357421875,0.0562744140625,1.00042724609375,2.923431396484375,-4.344024658203125,1.1065673828125,1482783.8827838828,99747032.96703295,56454578.754578754,86.06388,1.0,1.0,1.0,1.0,1.0,50.0,,0 days 00:00:00.001000
2023-11-16 11:18:12.808,0.862561,0.46417475,0.72566044,1.4167876,1.0441674,0.2894524,0.09432811,0.687794,0.25866097,-0.04013369,0.5083595,0.6193968,1.0004647,0.094271295,0.12724884,0.79044783,0.8954941,-0.16687313,0.026393797,0.40989995,695.8608,789.7436,774.83514,790.54944,906.5934,0.0,0.0,0.141357421875,0.0562744140625,1.00042724609375,2.923431396484375,-4.344024658203125,1.1065673828125,1482783.8827838828,99747032.96703295,56454578.754578754,86.06388,1.0,1.0,1.0,1.0,1.0,50.0,,0 days 00:00:00
2023-11-16 11:18:12.809,0.862561,0.58321244,0.727943,1.4167876,1.0441674,0.29405287,0.05367911,0.687794,0.25866097,-0.02876493,0.5260361,0.6193968,1.0004647,0.112673424,0.16285703,0.79044783,0.8954941,-0.19609293,0.018922154,0.40989995,679.34064,782.49084,773.6264,776.4469,847.3626,0.0,0.0,0.141357421875,0.0562744140625,1.00042724609375,2.923431396484375,-4.344024658203125,1.1065673828125,1482783.8827838828,99747032.96703295,56454578.754578754,86.06388,1.0,1.0,1.0,1.0,1.0,50.0,,0 days 00:00:00.001000
2023-11-16 11:18:12.811,0.862561,0.58321244,0.727943,1.4167876,1.0441674,0.29405287,0.05367911,0.687794,0.25866097,-0.02876493,0.5260361,0.6193968,1.0004647,0.112673424,0.16285703,0.79044783,0.8954941,-0.19609293,0.018922154,0.40989995,690.2198,782.8938,775.64105,795.38464,803.0403,0.0,0.0,0.141357421875,0.0562744140625,1.00042724609375,2.923431396484375,-4.344024658203125,1.1065673828125,1482783.8827838828,99747032.96703295,56454578.754578754,86.06388,1.0,1.0,1.0,1.0,1.0,50.0,,0 days 00:00:00.002000
2023-11-16 11:18:12.812,0.862561,0.58321244,0.727943,1.4167876,1.0441674,0.29405287,0.05367911,0.687794,0.25866097,-0.02876493,0.5260361,0.6193968,1.0004647,0.112673424,0.16285703,0.79044783,0.8954941,-0.19609293,0.018922154,0.40989995,701.50183,786.9231,777.25275,791.3553,917.8755,0.0,0.0,0.141357421875,0.0562744140625,1.00042724609375,2.923431396484375,-4.344024658203125,1.1065673828125,1482783.8827838828,99747032.96703295,56454578.754578754,86.06388,1.0,1.0,1.0,1.0,1.0,50.0,,0 days 00:00:00.001000
2023-11-16 11:18:12.812,0.862561,0.58321244,0.727943,1.4167876,1.0441674,0.29405287,0.05367911,0.687794,0.25866097,-0.02876493,0.5260361,0.6193968,1.0004647,0.112673424,0.16285703,0.79044783,0.8954941,-0.19609293,0.018922154,0.40989995,711.5751,785.31134,768.3883,796.5934,1104.4323,0.0,0.0,0.141357421875,0.0562744140625,1.00042724609375,2.923431396484375,-4.344024658203125,1.1065673828125,1482783.8827838828,99747032.96703295,56454578.754578754,86.06388,1.0,1.0,1.0,1.0,1.0,50.0,,0 days 00:00:00
2023-11-16 11:18:12.813,0.862561,0.58321244,0.727943,1.4167876,1.0441674,0.29405287,0.05367911,0.687794,0.25866097,-0.02876493,0.5260361,0.6193968,1.0004647,0.112673424,0.16285703,0.79044783,0.8954941,-0.19609293,0.018922154,0.40989995,697.0696,783.69965,774.0293,809.89014,972.27106,0.0,0.0,0.141357421875,0.0562744140625,1.00042724609375,2.923431396484375,-4.344024658203125,1.1065673828125,1482783.8827838828,99747032.96703295,56454578.754578754,86.06388,1.0,1.0,1.0,1.0,1.0,50.0,,0 days 00:00:00.001000
2023-11-16 11:18:12.813,0.862561,0.58321244,0.727943,1.4167876,1.0441674,0.29405287,0.05367911,0.687794,0.25866097,-0.02876493,0.5260361,0.6193968,1.0004647,0.112673424,0.16285703,0.79044783,0.8954941,-0.19609293,0.018922154,0.40989995,672.0879,783.2967,780.87915,778.46155,724.4689,0.0,0.0,0.141357421875,0.0562744140625,1.00042724609375,2.923431396484375,-4.344024658203125,1.1065673828125,1482783.8827838828,99747032.96703295,56454578.754578754,86.06388,1.0,1.0,1.0,1.0,1.0,50.0,,0 days 00:00:00
2023-11-16 11:18:12.814,0.862561,0.58321244,0.727943,1.4167876,1.0441674,0.29405287,0.05367911,0.687794,0.25866097,-0.02876493,0.5260361,0.6193968,1.0004647,0.112673424,0.16285703,0.79044783,0.8954941,-0.19609293,0.018922154,0.40989995,691.02563,786.9231,775.64105,776.04395,848.97437,0.0,0.0,0.141357421875,0.0562744140625,1.00042724609375,2.923431396484375,-4.344024658203125,1.1065673828125,1482783.8827838828,99747032.96703295,56454578.754578754,86.06388,1.0,1.0,1.0,1.0,1.0,50.0,,0 days 00:00:00.001000
2023-11-16 11:18:12.814,0.862561,0.58321244,0.727943,1.4167876,1.0441674,0.29405287,0.05367911,0.687794,0.25866097,-0.02876493,0.5260361,0.6193968,1.0004647,0.112673424,0.16285703,0.79044783,0.8954941,-0.19609293,0.018922154,0.40989995,697.8755,789.7436,772.4176,795.78754,913.0403,0.0,0.0,0.141357421875,0.0562744140625,1.00042724609375,2.923431396484375,-4.344024658203125,1.1065673828125,1482783.8827838828,99747032.96703295,56454578.754578754,86.06388,1.0,1.0,1.0,1.0,1.0,50.0,,0 days 00:00:00
2023-11-16 11:18:12.815,0.862561,0.58321244,0.727943,1.4167876,1.0441674,0.29405287,0.05367911,0.687794,0.25866097,-0.02876493,0.5260361,0.6193968,1.0004647,0.112673424,0.16285703,0.79044783,0.8954941,-0.19609293,0.018922154,0.40989995,684.57874,785.31134,771.6117,785.7143,777.25275,0.0,0.0,0.141357421875,0.0562744140625,1.00042724609375,2.923431396484375,-4.344024658203125,1.1065673828125,1482783.8827838828,99747032.96703295,56454578.754578754,86.06388,1.0,1.0,1.0,1.0,1.0,50.0,,0 days 00:00:00.001000
2023-11-16 11:18:12.840,0.862561,0.58321244,0.727943,1.4167876,1.0441674,0.29405287,0.05367911,0.687794,0.25866097,-0.02876493,0.5260361,0.6193968,1.0004647,0.112673424,0.16285703,0.79044783,0.8954941,-0.19609293,0.018922154,0.40989995,698.68134,782.8938,776.04395,785.7143,764.35895,0.0,0.0,0.155517578125,0.0711669921875,0.9517822265625,4.493560791015625,-4.5159912109375,-0.157012939453125,1480366.3003663004,99777655.67765568,56454578.754578754,85.86003,1.0,1.0,1.0,1.0,1.0,50.0,,0 days 00:00:00.025000
2023-11-16 11:18:12.841,0.862561,0.58321244,0.727943,1.4167876,1.0441674,0.29405287,0.05367911,0.687794,0.25866097,-0.02876493,0.5260361,0.6193968,1.0004647,0.112673424,0.16285703,0.79044783,0.8954941,-0.19609293,0.018922154,0.40989995,711.5751,788.1319,778.86444,795.38464,820.7692,0.0,0.0,0.155517578125,0.0711669921875,0.9517822265625,4.493560791015625,-4.5159912109375,-0.157012939453125,1480366.3003663004,99777655.67765568,56454578.754578754,85.86003,1.0,1.0,1.0,1.0,1.0,50.0,,0 days 00:00:00.001000
2023-11-16 11:18:12.841,0.862561,0.58321244,0.727943,1.4167876,1.0441674,0.29405287,0.05367911,0.687794,0.25866097,-0.02876493,0.5260361,0.6193968,1.0004647,0.112673424,0.16285703,0.79044783,0.8954941,-0.19609293,0.018922154,0.40989995,711.1722,793.36993,782.0879,789.34064,815.5311,0.0,0.0,0.155517578125,0.0711669921875,0.9517822265625,4.493560791015625,-4.5159912109375,-0.157012939453125,1480366.3003663004,99777655.67765568,56454578.754578754,85.86003,1.0,1.0,1.0,1.0,1.0,50.0,,0 days 00:00:00
2023-11-16 11:18:12.841,0.862561,0.58321244,0.727943,1.4167876,1.0441674,0.29405287,0.05367911,0.687794,0.25866097,-0.02876493,0.5260361,0.6193968,1.0004647,0.112673424,0.16285703,0.79044783,0.8954941,-0.19609293,0.018922154,0.40989995,694.2491,794.9817,782.49084,789.34064,781.685,0.0,0.0,0.155517578125,0.0711669921875,0.9517822265625,4.493560791015625,-4.5159912109375,-0.157012939453125,1480366.3003663004,99777655.67765568,56454578.754578754,85.86003,1.0,1.0,1.0,1.0,1.0,50.0,,0 days 00:00:00
2023-11-16 11:18:12.842,0.862561,0.58321244,0.727943,1.4167876,1.0441674,0.29405287,0.05367911,0.687794,0.25866097,-0.02876493,0.5260361,0.6193968,1.0004647,0.112673424,0.16285703,0.79044783,0.8954941,-0.19609293,0.018922154,0.40989995,695.4579,802.23444,784.10254,794.9817,806.26373,0.0,0.0,0.155517578125,0.0711669921875,0.9517822265625,4.493560791015625,-4.5159912109375,-0.157012939453125,1480366.3003663004,99777655.67765568,56454578.754578754,85.86003,1.0,1.0,1.0,1.0,1.0,50.0,,0 days 00:00:00.001000
2023-11-16 11:18:12.842,0.862561,0.58321244,0.727943,1.4167876,1.0441674,0.29405287,0.05367911,0.687794,0.25866097,-0.02876493,0.5260361,0.6193968,1.0004647,0.112673424,0.16285703,0.79044783,0.8954941,-0.19609293,0.018922154,0.40989995,715.2015,801.8315,787.326,801.8315,878.7912,0.0,0.0,0.155517578125,0.0711669921875,0.9517822265625,4.493560791015625,-4.5159912109375,-0.157012939453125,1480366.3003663004,99777655.67765568,56454578.754578754,85.86003,1.0,1.0,1.0,1.0,1.0,50.0,,0 days 00:00:00
2023-11-16 11:18:12.842,0.862561,0.58321244,0.727943,1.4167876,1.0441674,0.29405287,0.05367911,0.687794,0.25866097,-0.02876493,0.5260361,0.6193968,1.0004647,0.112673424,0.16285703,0.79044783,0.8954941,-0.19609293,0.018922154,0.40989995,718.4249,792.1612,781.685,799.41394,919.0842,0.0,0.0,0.155517578125,0.0711669921875,0.9517822265625,4.493560791015625,-4.5159912109375,-0.157012939453125,1480366.3003663004,99777655.67765568,56454578.754578754,85.86003,1.0,1.0,1.0,1.0,1.0,50.0,,0 days 00:00:00
2023-11-16 11:18:12.843,0.862561,0.58321244,0.727943,1.4167876,1.0441674,0.29405287,0.05367911,0.687794,0.25866097,-0.02876493,0.5260361,0.6193968,1.0004647,0.112673424,0.16285703,0.79044783,0.8954941,-0.19609293,0.018922154,0.40989995,715.2015,788.5348,777.6557,779.67035,872.74725,0.0,0.0,0.155517578125,0.0711669921875,0.9517822265625,4.493560791015625,-4.5159912109375,-0.157012939453125,1480366.3003663004,99777655.67765568,56454578.754578754,85.86003,1.0,1.0,1.0,1.0,1.0,50.0,,0 days 00:00:00.001000
2023-11-16 11:18:12.843,0.862561,0.58321244,0.727943,1.4167876,1.0441674,0.29405287,0.05367911,0.687794,0.25866097,-0.02876493,0.5260361,0.6193968,1.0004647,0.112673424,0.16285703,0.79044783,0.8954941,-0.19609293,0.018922154,0.40989995,718.8278,794.9817,774.43225,779.2674,785.31134,0.0,0.0,0.155517578125,0.0711669921875,0.9517822265625,4.493560791015625,-4.5159912109375,-0.157012939453125,1480366.3003663004,99777655.67765568,56454578.754578754,85.86003,1.0,1.0,1.0,1.0,1.0,50.0,,0 days 00:00:00
2023-11-16 11:18:12.843,0.862561,0.58321244,0.727943,1.4167876,1.0441674,0.29405287,0.05367911,0.687794,0.25866097,-0.02876493,0.5260361,0.6193968,1.0004647,0.112673424,0.16285703,0.79044783,0.8954941,-0.19609293,0.018922154,0.40989995,712.381,790.14655,771.6117,798.20514,895.7143,0.0,0.0,0.155517578125,0.0711669921875,0.9517822265625,4.493560791015625,-4.5159912109375,-0.157012939453125,1480366.3003663004,99777655.67765568,56454578.754578754,85.86003,1.0,1.0,1.0,1.0,1.0,50.0,,0 days 00:00:00
2023-11-16 11:18:12.843,0.862561,0.58321244,0.727943,1.4167876,1.0441674,0.29405287,0.05367911,0.687794,0.25866097,-0.02876493,0.5260361,0.6193968,1.0004647,0.112673424,0.16285703,0.79044783,0.8954941,-0.19609293,0.018922154,0.40989995,709.9634,788.93774,782.8938,801.02563,936.4103,0.0,0.0,0.155517578125,0.0711669921875,0.9517822265625,4.493560791015625,-4.5159912109375,-0.157012939453125,1480366.3003663004,99777655.67765568,56454578.754578754,85.86003,1.0,1.0,1.0,1.0,1.0,50.0,,0 days 00:00:00
2023-11-16 11:18:12.844,0.862561,0.58321244,0.727943,1.4167876,1.0441674,0.29405287,0.05367911,0.687794,0.25866097,-0.02876493,0.5260361,0.6193968,1.0004647,0.112673424,0.16285703,0.79044783,0.8954941,-0.19609293,0.018922154,0.40989995,724.4689,799.011,787.72894,784.90845,754.68866,0.0,0.0,0.155517578125,0.0711669921875,0.9517822265625,4.493560791015625,-4.5159912109375,-0.157012939453125,1480366.3003663004,99777655.67765568,56454578.754578754,85.86003,1.0,1.0,1.0,1.0,1.0,50.0,,0 days 00:00:00.001000
2023-11-16 11:18:12.909,0.862561,0.58321244,0.727943,1.4167876,1.0441674,0.29405287,0.05367911,0.687794,0.25866097,-0.02876493,0.5260361,0.6193968,1.0004647,0.112673424,0.16285703,0.79044783,0.8954941,-0.19609293,0.018922154,0.40989995,721.2454,795.38464,778.46155,781.28204,761.13556,0.0,0.0,0.155517578125,0.0711669921875,0.9517822265625,4.493560791015625,-4.5159912109375,-0.157012939453125,1480366.3003663004,99777655.67765568,56454578.754578754,85.86003,1.0,1.0,1.0,1.0,1.0,50.0,,0 days 00:00:00.065000
2023-11-16 11:18:12.910,0.862561,0.58321244,0.727943,1.4167876,1.0441674,0.29405287,0.05367911,0.687794,0.25866097,-0.02876493,0.5260361,0.6193968,1.0004647,0.112673424,0.16285703,0.79044783,0.8954941,-0.19609293,0.018922154,0.40989995,698.68134,783.2967,780.4762,787.326,786.9231,0.0,0.0,0.155517578125,0.0711669921875,0.9517822265625,4.493560791015625,-4.5159912109375,-0.157012939453125,1480366.3003663004,99777655.67765568,56454578.754578754,85.86003,1.0,1.0,1.0,1.0,1.0,50.0,,0 days 00:00:00.001000
2023-11-16 11:18:12.911,0.862561,0.58321244,0.727943,1.4167876,1.0441674,0.29405287,0.05367911,0.687794,0.25866097,-0.02876493,0.5260361,0.6193968,1.0004647,0.112673424,0.16285703,0.79044783,0.8954941,-0.19609293,0.018922154,0.40989995,703.5165,781.28204,778.0586,792.5641,797.8022,0.0,0.0,0.155517578125,0.0711669921875,0.9517822265625,4.493560791015625,-4.5159912109375,-0.157012939453125,1480366.3003663004,99777655.67765568,56454578.754578754,85.86003,1.0,1.0,1.0,1.0,1.0,50.0,,0 days 00:00:00.001000
2023-11-16 11:18:12.911,0.862561,0.58321244,0.727943,1.4167876,1.0441674,0.29405287,0.05367911,0.687794,0.25866097,-0.02876493,0.5260361,0.6193968,1.0004647,0.112673424,0.16285703,0.79044783,0.8954941,-0.19609293,0.018922154,0.40989995,716.8132,786.9231,776.04395,793.36993,789.7436,0.0,0.0,0.155517578125,0.0711669921875,0.9517822265625,4.493560791015625,-4.5159912109375,-0.157012939453125,1480366.3003663004,99777655.67765568,56454578.754578754,85.86003,1.0,1.0,1.0,1.0,1.0,50.0,,0 days 00:00:00
2023-11-16 11:18:12.912,0.862561,0.58321244,0.727943,1.4167876,1.0441674,0.29405287,0.05367911,0.687794,0.25866097,-0.02876493,0.5260361,0.6193968,1.0004647,0.112673424,0.16285703,0.79044783,0.8954941,-0.19609293,0.018922154,0.40989995,708.3516,786.9231,776.8498,793.7729,808.68134,0.0,0.0,0.155517578125,0.0711669921875,0.9517822265625,4.493560791015625,-4.5159912109375,-0.157012939453125,1480366.3003663004,99777655.67765568,56454578.754578754,85.86003,1.0,1.0,1.0,1.0,1.0,50.0,,0 days 00:00:00.001000
2023-11-16 11:18:12.912,0.862561,0.64234465,0.7359696,1.4167876,1.0441674,0.27676174,0.018429862,0.687794,0.25866097,-0.021619806,0.5260361,0.6193968,1.0004647,0.12587358,0.17786369,0.79044783,0.8954941,-0.21729657,0.0026562845,0.40989995,712.7839,786.1172,770.0,800.6227,1077.8389,0.0,0.0,0.155517578125,0.0711669921875,0.9517822265625,4.493560791015625,-4.5159912109375,-0.157012939453125,1480366.3003663004,99777655.67765568,56454578.754578754,85.86003,1.0,1.0,1.0,1.0,1.0,50.0,,0 days 00:00:00
2023-11-16 11:18:12.915,0.862561,0.64234465,0.7359696,1.4167876,1.0441674,0.27676174,0.018429862,0.687794,0.25866097,-0.021619806,0.5260361,0.6193968,1.0004647,0.12587358,0.17786369,0.79044783,0.8954941,-0.21729657,0.0026562845,0.40989995,716.4103,785.31134,767.98535,797.3993,1089.1208,0.0,0.0,0.155517578125,0.0711669921875,0.9517822265625,4.493560791015625,-4.5159912109375,-0.157012939453125,1480366.3003663004,99777655.67765568,56454578.754578754,85.86003,1.0,1.0,1.0,1.0,1.0,50.0,,0 days 00:00:00.003000
2023-11-16 11:18:12.916,0.862561,0.64234465,0.7359696,1.4167876,1.0441674,0.27676174,0.018429862,0.687794,0.25866097,-0.021619806,0.5260361,0.6193968,1.0004647,0.12587358,0.17786369,0.79044783,0.8954941,-0.21729657,0.0026562845,0.40989995,740.58606,783.69965,772.01465,777.6557,796.99634,0.0,0.0,0.155517578125,0.0711669921875,0.9517822265625,4.493560791015625,-4.5159912109375,-0.157012939453125,1480366.3003663004,99777655.67765568,56454578.754578754,85.86003,1.0,1.0,1.0,1.0,1.0,50.0,,0 days 00:00:00.001000
2023-11-16 11:18:12.916,0.862561,0.64234465,0.7359696,1.4167876,1.0441674,0.27676174,0.018429862,0.687794,0.25866097,-0.021619806,0.5260361,0.6193968,1.0004647,0.12587358,0.17786369,0.79044783,0.8954941,-0.21729657,0.0026562845,0.40989995,732.1245,784.5055,769.59705,757.9121,778.46155,0.0,0.0,0.155517578125,0.0711669921875,0.9517822265625,4.493560791015625,-4.5159912109375,-0.157012939453125,1480366.3003663004,99777655.67765568,56454578.754578754,85.86003,1.0,1.0,1.0,1.0,1.0,50.0,,0 days 00:00:00
2023-11-16 11:18:12.916,0.862561,0.64234465,0.7359696,1.4167876,1.0441674,0.27676174,0.018429862,0.687794,0.25866097,-0.021619806,0.5260361,0.6193968,1.0004647,0.12587358,0.17786369,0.79044783,0.8954941,-0.21729657,0.0026562845,0.40989995,711.978,784.10254,774.83514,786.9231,885.2381,0.0,0.0,0.155517578125,0.0711669921875,0.9517822265625,4.493560791015625,-4.5159912109375,-0.157012939453125,1480366.3003663004,99777655.67765568,56454578.754578754,85.86003,1.0,1.0,1.0,1.0,1.0,50.0,,0 days 00:00:00
2023-11-16 11:18:12.916,0.862561,0.64234465,0.7359696,1.4167876,1.0441674,0.27676174,0.018429862,0.687794,0.25866097,-0.021619806,0.5260361,0.6193968,1.0004647,0.12587358,0.17786369,0.79044783,0.8954941,-0.21729657,0.0026562845,0.40989995,724.0659,788.93774,789.34064,792.1612,788.1319,0.0,0.0,0.155517578125,0.0711669921875,0.9517822265625,4.493560791015625,-4.5159912109375,-0.157012939453125,1480366.3003663004,99777655.67765568,56454578.754578754,85.86003,1.0,1.0,1.0,1.0,1.0,50.0,,0 days 00:00:00
2023-11-16 11:18:12.916,0.862561,0.64234465,0.7359696,1.4167876,1.0441674,0.27676174,0.018429862,0.687794,0.25866097,-0.021619806,0.5260361,0.6193968,1.0004647,0.12587358,0.17786369,0.79044783,0.8954941,-0.21729657,0.0026562845,0.40989995,739.3773,788.93774,782.8938,781.685,708.7546,0.0,0.0,0.155517578125,0.0711669921875,0.9517822265625,4.493560791015625,-4.5159912109375,-0.157012939453125,1480366.3003663004,99777655.67765568,56454578.754578754,85.86003,1.0,1.0,1.0,1.0,1.0,50.0,,0 days 00:00:00
2023-11-16 11:18:12.943,0.862561,0.64234465,0.7359696,1.4167876,1.0441674,0.27676174,0.018429862,0.687794,0.25866097,-0.021619806,0.5260361,0.6193968,1.0004647,0.12587358,0.17786369,0.79044783,0.8954941,-0.21729657,0.0026562845,0.40989995,737.76556,786.9231,772.4176,782.0879,724.4689,0.0,0.0,0.1551513671875,0.05804443359375,1.0030517578125,3.611297607421875,-4.972076416015625,0.31402587890625,1473113.553113553,99778461.53846154,56451355.31135531,85.66812,1.0,1.0,1.0,1.0,1.0,50.0,,0 days 00:00:00.027000
2023-11-16 11:18:12.944,0.862561,0.64234465,0.7359696,1.4167876,1.0441674,0.27676174,0.018429862,0.687794,0.25866097,-0.021619806,0.5260361,0.6193968,1.0004647,0.12587358,0.17786369,0.79044783,0.8954941,-0.21729657,0.0026562845,0.40989995,724.87177,787.72894,778.46155,791.3553,768.3883,0.0,0.0,0.1551513671875,0.05804443359375,1.0030517578125,3.611297607421875,-4.972076416015625,0.31402587890625,1473113.553113553,99778461.53846154,56451355.31135531,85.66812,1.0,1.0,1.0,1.0,1.0,50.0,,0 days 00:00:00.001000
2023-11-16 11:18:12.944,0.862561,0.64234465,0.7359696,1.4167876,1.0441674,0.27676174,0.018429862,0.687794,0.25866097,-0.021619806,0.5260361,0.6193968,1.0004647,0.12587358,0.17786369,0.79044783,0.8954941,-0.21729657,0.0026562845,0.40989995,730.10986,784.90845,779.2674,783.2967,778.46155,0.0,0.0,0.1551513671875,0.05804443359375,1.0030517578125,3.611297607421875,-4.972076416015625,0.31402587890625,1473113.553113553,99778461.53846154,56451355.31135531,85.66812,1.0,1.0,1.0,1.0,1.0,50.0,,0 days 00:00:00
2023-11-16 11:18:12.945,0.862561,0.64234465,0.7359696,1.4167876,1.0441674,0.27676174,0.018429862,0.687794,0.25866097,-0.021619806,0.5260361,0.6193968,1.0004647,0.12587358,0.17786369,0.79044783,0.8954941,-0.21729657,0.0026562845,0.40989995,732.9304,783.2967,780.07324,772.01465,699.4872,0.0,0.0,0.1551513671875,0.05804443359375,1.0030517578125,3.611297607421875,-4.972076416015625,0.31402587890625,1473113.553113553,99778461.53846154,56451355.31135531,85.66812,1.0,1.0,1.0,1.0,1.0,50.0,,0 days 00:00:00.001000
2023-11-16 11:18:12.945,0.862561,0.64234465,0.7359696,1.4167876,1.0441674,0.27676174,0.018429862,0.687794,0.25866097,-0.021619806,0.5260361,0.6193968,1.0004647,0.12587358,0.17786369,0.79044783,0.8954941,-0.21729657,0.0026562845,0.40989995,739.7802,780.87915,780.4762,792.1612,770.80585,0.0,0.0,0.1551513671875,0.05804443359375,1.0030517578125,3.611297607421875,-4.972076416015625,0.31402587890625,1473113.553113553,99778461.53846154,56451355.31135531,85.66812,1.0,1.0,1.0,1.0,1.0,50.0,,0 days 00:00:00
2023-11-16 11:18:12.946,0.862561,0.64234465,0.7359696,1.4167876,1.0441674,0.27676174,0.018429862,0.687794,0.25866097,-0.021619806,0.5260361,0.6193968,1.0004647,0.12587358,0.17786369,0.79044783,0.8954941,-0.21729657,0.0026562845,0.40989995,735.34796,782.8938,778.86444,787.72894,893.69965,0.0,0.0,0.1551513671875,0.05804443359375,1.0030517578125,3.611297607421875,-4.972076416015625,0.31402587890625,1473113.553113553,99778461.53846154,56451355.31135531,85.66812,1.0,1.0,1.0,1.0,1.0,50.0,,0 days 00:00:00.001000
2023-11-16 11:18:12.946,0.862561,0.64234465,0.7359696,1.4167876,1.0441674,0.27676174,0.018429862,0.687794,0.25866097,-0.021619806,0.5260361,0.6193968,1.0004647,0.12587358,0.17786369,0.79044783,0.8954941,-0.21729657,0.0026562845,0.40989995,715.2015,790.54944,782.49084,788.93774,852.6007,0.0,0.0,0.1551513671875,0.05804443359375,1.0030517578125,3.611297607421875,-4.972076416015625,0.31402587890625,1473113.553113553,99778461.53846154,56451355.31135531,85.66812,1.0,1.0,1.0,1.0,1.0,50.0,,0 days 00:00:00
2023-11-16 11:18:12.946,0.862561,0.64234465,0.7359696,1.4167876,1.0441674,0.27676174,0.018429862,0.687794,0.25866097,-0.021619806,0.5260361,0.6193968,1.0004647,0.12587358,0.17786369,0.79044783,0.8954941,-0.21729657,0.0026562845,0.40989995,714.7985,787.326,774.43225,788.93774,808.2784,0.0,0.0,0.1551513671875,0.05804443359375,1.0030517578125,3.611297607421875,-4.972076416015625,0.31402587890625,1473113.553113553,99778461.53846154,56451355.31135531,85.66812,1.0,1.0,1.0,1.0,1.0,50.0,,0 days 00:00:00
2023-11-16 11:18:12.947,0.862561,0.64234465,0.7359696,1.4167876,1.0441674,0.27676174,0.018429862,0.687794,0.25866097,-0.021619806,0.5260361,0.6193968,1.0004647,0.12587358,0.17786369,0.79044783,0.8954941,-0.21729657,0.0026562845,0.40989995,738.5714,789.34064,773.22345,805.4579,899.7436,0.0,0.0,0.1551513671875,0.05804443359375,1.0030517578125,3.611297607421875,-4.972076416015625,0.31402587890625,1473113.553113553,99778461.53846154,56451355.31135531,85.66812,1.0,1.0,1.0,1.0,1.0,50.0,,0 days 00:00:00.001000
2023-11-16 11:18:12.947,0.862561,0.64234465,0.7359696,1.4167876,1.0441674,0.27676174,0.018429862,0.687794,0.25866097,-0.021619806,0.5260361,0.6193968,1.0004647,0.12587358,0.17786369,0.79044783,0.8954941,-0.21729657,0.0026562845,0.40989995,747.8388,789.34064,781.28204,810.696,1017.3993,0.0,0.0,0.1551513671875,0.05804443359375,1.0030517578125,3.611297607421875,-4.972076416015625,0.31402587890625,1473113.553113553,99778461.53846154,56451355.31135531,85.66812,1.0,1.0,1.0,1.0,1.0,50.0,,0 days 00:00:00
2023-11-16 11:18:12.948,0.862561,0.64234465,0.7359696,1.4167876,1.0441674,0.27676174,0.018429862,0.687794,0.25866097,-0.021619806,0.5260361,0.6193968,1.0004647,0.12587358,0.17786369,0.79044783,0.8954941,-0.21729657,0.0026562845,0.40989995,707.1429,779.2674,782.0879,775.64105,807.8755,0.0,0.0,0.1551513671875,0.05804443359375,1.0030517578125,3.611297607421875,-4.972076416015625,0.31402587890625,1473113.553113553,99778461.53846154,56451355.31135531,85.66812,1.0,1.0,1.0,1.0,1.0,50.0,,0 days 00:00:00.001000
2023-11-16 11:18:12.948,0.862561,0.64234465,0.7359696,1.4167876,1.0441674,0.27676174,0.018429862,0.687794,0.25866097,-0.021619806,0.5260361,0.6193968,1.0004647,0.12587358,0.17786369,0.79044783,0.8954941,-0.21729657,0.0026562845,0.40989995,713.1868,784.10254,788.93774,774.83514,733.73627,0.0,0.0,0.1551513671875,0.05804443359375,1.0030517578125,3.611297607421875,-4.972076416015625,0.31402587890625,1473113.553113553,99778461.53846154,56451355.31135531,85.66812,1.0,1.0,1.0,1.0,1.0,50.0,,0 days 00:00:00
2023-11-16 11:18:12.987,0.862561,0.64234465,0.7359696,1.4167876,1.0441674,0.27676174,0.018429862,0.687794,0.25866097,-0.021619806,0.5260361,0.6193968,1.0004647,0.12587358,0.17786369,0.79044783,0.8954941,-0.21729657,0.0026562845,0.40989995,713.9927,784.10254,788.5348,785.31134,816.337,0.0,0.0,0.1279296875,0.04443359375,1.01507568359375,1.51031494140625,-4.403839111328125,-0.0299072265625,1473113.553113553,99778461.53846154,56451355.31135531,85.66812,1.0,1.0,1.0,1.0,1.0,50.0,,0 days 00:00:00.039000
2023-11-16 11:18:12.988,0.862561,0.64234465,0.7359696,1.4167876,1.0441674,0.27676174,0.018429862,0.687794,0.25866097,-0.021619806,0.5260361,0.6193968,1.0004647,0.12587358,0.17786369,0.79044783,0.8954941,-0.21729657,0.0026562845,0.40989995,717.619,787.72894,787.72894,798.60803,792.96704,0.0,0.0,0.1279296875,0.04443359375,1.01507568359375,1.51031494140625,-4.403839111328125,-0.0299072265625,1473113.553113553,99778461.53846154,56451355.31135531,85.66812,1.0,1.0,1.0,1.0,1.0,50.0,,0 days 00:00:00.001000
2023-11-16 11:18:12.989,0.862561,0.64234465,0.7359696,1.4167876,1.0441674,0.27676174,0.018429862,0.687794,0.25866097,-0.021619806,0.5260361,0.6193968,1.0004647,0.12587358,0.17786369,0.79044783,0.8954941,-0.21729657,0.0026562845,0.40989995,728.0952,790.14655,796.1905,803.8461,743.4066,0.0,0.0,0.1279296875,0.04443359375,1.01507568359375,1.51031494140625,-4.403839111328125,-0.0299072265625,1473113.553113553,99778461.53846154,56451355.31135531,85.66812,1.0,1.0,1.0,1.0,1.0,50.0,,0 days 00:00:00.001000
2023-11-16 11:18:12.989,0.862561,0.64234465,0.7359696,1.4167876,1.0441674,0.27676174,0.018429862,0.687794,0.25866097,-0.021619806,0.5260361,0.6193968,1.0004647,0.12587358,0.17786369,0.79044783,0.8954941,-0.21729657,0.0026562845,0.40989995,717.619,786.1172,794.17584,799.81683,775.2381,0.0,0.0,0.1279296875,0.04443359375,1.01507568359375,1.51031494140625,-4.403839111328125,-0.0299072265625,1473113.553113553,99778461.53846154,56451355.31135531,85.66812,1.0,1.0,1.0,1.0,1.0,50.0,,0 days 00:00:00
2023-11-16 11:18:12.990,0.862561,0.64234465,0.7359696,1.4167876,1.0441674,0.27676174,0.018429862,0.687794,0.25866097,-0.021619806,0.5260361,0.6193968,1.0004647,0.12587358,0.17786369,0.79044783,0.8954941,-0.21729657,0.0026562845,0.40989995,717.619,785.7143,789.34064,807.0696,810.696,0.0,0.0,0.1279296875,0.04443359375,1.01507568359375,1.51031494140625,-4.403839111328125,-0.0299072265625,1473113.553113553,99778461.53846154,56451355.31135531,85.66812,1.0,1.0,1.0,1.0,1.0,50.0,,0 days 00:00:00.001000
2023-11-16 11:18:12.990,0.862561,0.64234465,0.7359696,1.4167876,1.0441674,0.27676174,0.018429862,0.687794,0.25866097,-0.021619806,0.5260361,0.6193968,1.0004647,0.12587358,0.17786369,0.79044783,0.8954941,-0.21729657,0.0026562845,0.40989995,727.28937,785.31134,789.34064,797.8022,819.9634,0.0,0.0,0.1279296875,0.04443359375,1.01507568359375,1.51031494140625,-4.403839111328125,-0.0299072265625,1473113.553113553,99778461.53846154,56451355.31135531,85.66812,1.0,1.0,1.0,1.0,1.0,50.0,,0 days 00:00:00
2023-11-16 11:18:12.991,0.862561,0.64234465,0.7359696,1.4167876,1.0441674,0.27676174,0.018429862,0.687794,0.25866097,-0.021619806,0.5260361,0.6193968,1.0004647,0.12587358,0.17786369,0.79044783,0.8954941,-0.21729657,0.0026562845,0.40989995,732.9304,793.36993,790.9524,781.685,815.12823,0.0,0.0,0.1279296875,0.04443359375,1.01507568359375,1.51031494140625,-4.403839111328125,-0.0299072265625,1473113.553113553,99778461.53846154,56451355.31135531,85.66812,1.0,1.0,1.0,1.0,1.0,50.0,,0 days 00:00:00.001000
2023-11-16 11:18:12.991,0.862561,0.6566245,0.7428506,1.4167876,1.0441674,0.2455473,-0.011509648,0.687794,0.25866097,0.027458837,0.5260361,0.6193968,1.0004647,0.12855165,0.17387916,0.79044783,0.8954941,-0.2276619,-0.020291049,0.40989995,723.2601,796.1905,788.1319,778.46155,796.99634,0.0,0.0,0.1279296875,0.04443359375,1.01507568359375,1.51031494140625,-4.403839111328125,-0.0299072265625,1473113.553113553,99778461.53846154,56451355.31135531,85.66812,1.0,1.0,1.0,1.0,1.0,50.0,,0 days 00:00:00
2023-11-16 11:18:12.994,0.862561,0.6566245,0.7428506,1.4167876,1.0441674,0.2455473,-0.011509648,0.687794,0.25866097,0.027458837,0.5260361,0.6193968,1.0004647,0.12855165,0.17387916,0.79044783,0.8954941,-0.2276619,-0.020291049,0.40989995,734.5421,794.17584,790.54944,806.6667,987.5824,0.0,0.0,0.1279296875,0.04443359375,1.01507568359375,1.51031494140625,-4.403839111328125,-0.0299072265625,1473113.553113553,99778461.53846154,56451355.31135531,85.66812,1.0,1.0,1.0,1.0,1.0,50.0,,0 days 00:00:00.003000
2023-11-16 11:18:12.994,0.862561,0.6566245,0.7428506,1.4167876,1.0441674,0.2455473,-0.011509648,0.687794,0.25866097,0.027458837,0.5260361,0.6193968,1.0004647,0.12855165,0.17387916,0.79044783,0.8954941,-0.2276619,-0.020291049,0.40989995,740.18317,787.72894,808.2784,802.23444,1020.6227,0.0,0.0,0.1279296875,0.04443359375,1.01507568359375,1.51031494140625,-4.403839111328125,-0.0299072265625,1473113.553113553,99778461.53846154,56451355.31135531,85.66812,1.0,1.0,1.0,1.0,1.0,50.0,,0 days 00:00:00
2023-11-16 11:18:12.995,0.862561,0.6566245,0.7428506,1.4167876,1.0441674,0.2455473,-0.011509648,0.687794,0.25866097,0.027458837,0.5260361,0.6193968,1.0004647,0.12855165,0.17387916,0.79044783,0.8954941,-0.2276619,-0.020291049,0.40989995,710.3663,782.49084,813.1135,766.77655,831.6484,0.0,0.0,0.1279296875,0.04443359375,1.01507568359375,1.51031494140625,-4.403839111328125,-0.0299072265625,1473113.553113553,99778461.53846154,56451355.31135531,85.66812,1.0,1.0,1.0,1.0,1.0,50.0,,0 days 00:00:00.001000
2023-11-16 11:18:12.995,0.862561,0.6566245,0.7428506,1.4167876,1.0441674,0.2455473,-0.011509648,0.687794,0.25866097,0.027458837,0.5260361,0.6193968,1.0004647,0.12855165,0.17387916,0.79044783,0.8954941,-0.2276619,-0.020291049,0.40989995,705.5311,785.31134,809.89014,788.1319,857.8388,0.0,0.0,0.1279296875,0.04443359375,1.01507568359375,1.51031494140625,-4.403839111328125,-0.0299072265625,1473113.553113553,99778461.53846154,56451355.31135531,85.66812,1.0,1.0,1.0,1.0,1.0,50.0,,0 days 00:00:00
2023-11-16 11:18:13.020,0.862561,0.6566245,0.7428506,1.4167876,1.0441674,0.2455473,-0.011509648,0.687794,0.25866097,0.027458837,0.5260361,0.6193968,1.0004647,0.12855165,0.17387916,0.79044783,0.8954941,-0.2276619,-0.020291049,0.40989995,693.8461,788.93774,807.8755,799.41394,893.69965,0.0,0.0,0.13958740234375,0.035400390625,1.007080078125,-0.829925537109375,-7.177734375,-3.491668701171875,1478754.5787545787,99830036.63003662,56436043.95604395,85.48745,1.0,1.0,1.0,1.0,1.0,50.0,,0 days 00:00:00.025000
2023-11-16 11:18:13.020,0.862561,0.6566245,0.7428506,1.4167876,1.0441674,0.2455473,-0.011509648,0.687794,0.25866097,0.027458837,0.5260361,0.6193968,1.0004647,0.12855165,0.17387916,0.79044783,0.8954941,-0.2276619,-0.020291049,0.40989995,682.96704,782.49084,805.05493,782.8938,778.46155,0.0,0.0,0.13958740234375,0.035400390625,1.007080078125,-0.829925537109375,-7.177734375,-3.491668701171875,1478754.5787545787,99830036.63003662,56436043.95604395,85.48745,1.0,1.0,1.0,1.0,1.0,50.0,,0 days 00:00:00
2023-11-16 11:18:13.021,0.862561,0.6566245,0.7428506,1.4167876,1.0441674,0.2455473,-0.011509648,0.687794,0.25866097,0.027458837,0.5260361,0.6193968,1.0004647,0.12855165,0.17387916,0.79044783,0.8954941,-0.2276619,-0.020291049,0.40989995,698.68134,779.2674,810.293,782.49084,780.87915,0.0,0.0,0.13958740234375,0.035400390625,1.007080078125,-0.829925537109375,-7.177734375,-3.491668701171875,1478754.5787545787,99830036.63003662,56436043.95604395,85.48745,1.0,1.0,1.0,1.0,1.0,50.0,,0 days 00:00:00.001000
2023-11-16 11:18:13.021,0.862561,0.6566245,0.7428506,1.4167876,1.0441674,0.2455473,-0.011509648,0.687794,0.25866097,0.027458837,0.5260361,0.6193968,1.0004647,0.12855165,0.17387916,0.79044783,0.8954941,-0.2276619,-0.020291049,0.40989995,693.0403,785.31134,809.89014,784.5055,835.6777,0.0,0.0,0.13958740234375,0.035400390625,1.007080078125,-0.829925537109375,-7.177734375,-3.491668701171875,1478754.5787545787,99830036.63003662,56436043.95604395,85.48745,1.0,1.0,1.0,1.0,1.0,50.0,,0 days 00:00:00
2023-11-16 11:18:13.021,0.862561,0.6566245,0.7428506,1.4167876,1.0441674,0.2455473,-0.011509648,0.687794,0.25866097,0.027458837,0.5260361,0.6193968,1.0004647,0.12855165,0.17387916,0.79044783,0.8954941,-0.2276619,-0.020291049,0.40989995,695.8608,784.10254,811.9048,776.8498,811.0989,0.0,0.0,0.13958740234375,0.035400390625,1.007080078125,-0.829925537109375,-7.177734375,-3.491668701171875,1478754.5787545787,99830036.63003662,56436043.95604395,85.48745,1.0,1.0,1.0,1.0,1.0,50.0,,0 days 00:00:00
2023-11-16 11:18:13.022,0.862561,0.6566245,0.7428506,1.4167876,1.0441674,0.2455473,-0.011509648,0.687794,0.25866097,0.027458837,0.5260361,0.6193968,1.0004647,0.12855165,0.17387916,0.79044783,0.8954941,-0.2276619,-0.020291049,0.40989995,722.4542,786.52014,817.5458,801.4286,794.17584,0.0,0.0,0.13958740234375,0.035400390625,1.007080078125,-0.829925537109375,-7.177734375,-3.491668701171875,1478754.5787545787,99830036.63003662,56436043.95604395,85.48745,1.0,1.0,1.0,1.0,1.0,50.0,,0 days 00:00:00.001000
2023-11-16 11:18:13.022,0.862561,0.6566245,0.7428506,1.4167876,1.0441674,0.2455473,-0.011509648,0.687794,0.25866097,0.027458837,0.5260361,0.6193968,1.0004647,0.12855165,0.17387916,0.79044783,0.8954941,-0.2276619,-0.020291049,0.40989995,725.2747,786.9231,809.89014,806.6667,790.14655,0.0,0.0,0.13958740234375,0.035400390625,1.007080078125,-0.829925537109375,-7.177734375,-3.491668701171875,1478754.5787545787,99830036.63003662,56436043.95604395,85.48745,1.0,1.0,1.0,1.0,1.0,50.0,,0 days 00:00:00
2023-11-16 11:18:13.022,0.862561,0.6566245,0.7428506,1.4167876,1.0441674,0.2455473,-0.011509648,0.687794,0.25866097,0.027458837,0.5260361,0.6193968,1.0004647,0.12855165,0.17387916,0.79044783,0.8954941,-0.2276619,-0.020291049,0.40989995,707.9487,782.8938,801.02563,779.67035,958.5714,0.0,0.0,0.13958740234375,0.035400390625,1.007080078125,-0.829925537109375,-7.177734375,-3.491668701171875,1478754.5787545787,99830036.63003662,56436043.95604395,85.48745,1.0,1.0,1.0,1.0,1.0,50.0,,0 days 00:00:00
2023-11-16 11:18:13.023,0.862561,0.6566245,0.7428506,1.4167876,1.0441674,0.2455473,-0.011509648,0.687794,0.25866097,0.027458837,0.5260361,0.6193968,1.0004647,0.12855165,0.17387916,0.79044783,0.8954941,-0.2276619,-0.020291049,0.40989995,705.5311,784.5055,801.02563,786.1172,940.0366,0.0,0.0,0.13958740234375,0.035400390625,1.007080078125,-0.829925537109375,-7.177734375,-3.491668701171875,1478754.5787545787,99830036.63003662,56436043.95604395,85.48745,1.0,1.0,1.0,1.0,1.0,50.0,,0 days 00:00:00.001000
2023-11-16 11:18:13.023,0.862561,0.6566245,0.7428506,1.4167876,1.0441674,0.2455473,-0.011509648,0.687794,0.25866097,0.027458837,0.5260361,0.6193968,1.0004647,0.12855165,0.17387916,0.79044783,0.8954941,-0.2276619,-0.020291049,0.40989995,712.381,784.5055,805.05493,788.5348,664.83514,0.0,0.0,0.13958740234375,0.035400390625,1.007080078125,-0.829925537109375,-7.177734375,-3.491668701171875,1478754.5787545787,99830036.63003662,56436043.95604395,85.48745,1.0,1.0,1.0,1.0,1.0,50.0,,0 days 00:00:00
2023-11-16 11:18:13.023,0.862561,0.6566245,0.7428506,1.4167876,1.0441674,0.2455473,-0.011509648,0.687794,0.25866097,0.027458837,0.5260361,0.6193968,1.0004647,0.12855165,0.17387916,0.79044783,0.8954941,-0.2276619,-0.020291049,0.40989995,722.8571,785.31134,805.4579,783.2967,650.32965,0.0,0.0,0.13958740234375,0.035400390625,1.007080078125,-0.829925537109375,-7.177734375,-3.491668701171875,1478754.5787545787,99830036.63003662,56436043.95604395,85.48745,1.0,1.0,1.0,1.0,1.0,50.0,,0 days 00:00:00
2023-11-16 11:18:13.024,0.862561,0.6566245,0.7428506,1.4167876,1.0441674,0.2455473,-0.011509648,0.687794,0.25866097,0.027458837,0.5260361,0.6193968,1.0004647,0.12855165,0.17387916,0.79044783,0.8954941,-0.2276619,-0.020291049,0.40989995,703.5165,787.72894,809.4872,778.86444,740.989,0.0,0.0,0.13958740234375,0.035400390625,1.007080078125,-0.829925537109375,-7.177734375,-3.491668701171875,1478754.5787545787,99830036.63003662,56436043.95604395,85.48745,1.0,1.0,1.0,1.0,1.0,50.0,,0 days 00:00:00.001000
2023-11-16 11:18:13.088,0.862561,0.6566245,0.7428506,1.4167876,1.0441674,0.2455473,-0.011509648,0.687794,0.25866097,0.027458837,0.5260361,0.6193968,1.0004647,0.12855165,0.17387916,0.79044783,0.8954941,-0.2276619,-0.020291049,0.40989995,690.6227,786.1172,811.0989,769.59705,778.86444,0.0,0.0,0.16778564453125,0.03887939453125,0.9927978515625,-1.921539306640625,-3.27484130859375,-0.171966552734375,1478754.5787545787,99830036.63003662,56436043.95604395,85.48745,1.0,1.0,1.0,1.0,1.0,50.0,,0 days 00:00:00.064000
2023-11-16 11:18:13.088,0.862561,0.6566245,0.7428506,1.4167876,1.0441674,0.2455473,-0.011509648,0.687794,0.25866097,0.027458837,0.5260361,0.6193968,1.0004647,0.12855165,0.17387916,0.79044783,0.8954941,-0.2276619,-0.020291049,0.40989995,727.28937,791.75824,803.8461,769.59705,726.8865,0.0,0.0,0.16778564453125,0.03887939453125,0.9927978515625,-1.921539306640625,-3.27484130859375,-0.171966552734375,1478754.5787545787,99830036.63003662,56436043.95604395,85.48745,1.0,1.0,1.0,1.0,1.0,50.0,,0 days 00:00:00
2023-11-16 11:18:13.089,0.862561,0.6566245,0.7428506,1.4167876,1.0441674,0.2455473,-0.011509648,0.687794,0.25866097,0.027458837,0.5260361,0.6193968,1.0004647,0.12855165,0.17387916,0.79044783,0.8954941,-0.2276619,-0.020291049,0.40989995,730.5128,790.9524,803.44324,775.2381,794.9817,0.0,0.0,0.16778564453125,0.03887939453125,0.9927978515625,-1.921539306640625,-3.27484130859375,-0.171966552734375,1478754.5787545787,99830036.63003662,56436043.95604395,85.48745,1.0,1.0,1.0,1.0,1.0,50.0,,0 days 00:00:00.001000
2023-11-16 11:18:13.090,0.862561,0.6566245,0.7428506,1.4167876,1.0441674,0.2455473,-0.011509648,0.687794,0.25866097,0.027458837,0.5260361,0.6193968,1.0004647,0.12855165,0.17387916,0.79044783,0.8954941,-0.2276619,-0.020291049,0.40989995,705.9341,779.2674,813.5165,792.5641,908.60803,0.0,0.0,0.16778564453125,0.03887939453125,0.9927978515625,-1.921539306640625,-3.27484130859375,-0.171966552734375,1478754.5787545787,99830036.63003662,56436043.95604395,85.48745,1.0,1.0,1.0,1.0,1.0,50.0,,0 days 00:00:00.001000
2023-11-16 11:18:13.090,0.862561,0.6566245,0.7428506,1.4167876,1.0441674,0.2455473,-0.011509648,0.687794,0.25866097,0.027458837,0.5260361,0.6193968,1.0004647,0.12855165,0.17387916,0.79044783,0.8954941,-0.2276619,-0.020291049,0.40989995,700.293,779.2674,808.2784,796.5934,827.619,0.0,0.0,0.16778564453125,0.03887939453125,0.9927978515625,-1.921539306640625,-3.27484130859375,-0.171966552734375,1478754.5787545787,99830036.63003662,56436043.95604395,85.48745,1.0,1.0,1.0,1.0,1.0,50.0,,0 days 00:00:00
2023-11-16 11:18:13.091,0.862561,0.6566245,0.7428506,1.4167876,1.0441674,0.2455473,-0.011509648,0.687794,0.25866097,0.027458837,0.5260361,0.6193968,1.0004647,0.12855165,0.17387916,0.79044783,0.8954941,-0.2276619,-0.020291049,0.40989995,714.3956,787.72894,796.5934,783.2967,747.03296,0.0,0.0,0.16778564453125,0.03887939453125,0.9927978515625,-1.921539306640625,-3.27484130859375,-0.171966552734375,1478754.5787545787,99830036.63003662,56436043.95604395,85.48745,1.0,1.0,1.0,1.0,1.0,50.0,,0 days 00:00:00.001000
2023-11-16 11:18:13.091,0.862561,0.6566245,0.7428506,1.4167876,1.0441674,0.2455473,-0.011509648,0.687794,0.25866097,0.027458837,0.5260361,0.6193968,1.0004647,0.12855165,0.17387916,0.79044783,0.8954941,-0.2276619,-0.020291049,0.40989995,705.9341,788.93774,797.3993,773.6264,803.44324,0.0,0.0,0.16778564453125,0.03887939453125,0.9927978515625,-1.921539306640625,-3.27484130859375,-0.171966552734375,1478754.5787545787,99830036.63003662,56436043.95604395,85.48745,1.0,1.0,1.0,1.0,1.0,50.0,,0 days 00:00:00
2023-11-16 11:18:13.092,0.862561,0.6566245,0.7428506,1.4167876,1.0441674,0.2455473,-0.011509648,0.687794,0.25866097,0.027458837,0.5260361,0.6193968,1.0004647,0.12855165,0.17387916,0.79044783,0.8954941,-0.2276619,-0.020291049,0.40989995,699.89014,788.5348,797.8022,789.7436,1029.4872,0.0,0.0,0.16778564453125,0.03887939453125,0.9927978515625,-1.921539306640625,-3.27484130859375,-0.171966552734375,1478754.5787545787,99830036.63003662,56436043.95604395,85.48745,1.0,1.0,1.0,1.0,1.0,50.0,,0 days 00:00:00.001000
2023-11-16 11:18:13.092,0.862561,0.6566245,0.7428506,1.4167876,1.0441674,0.2455473,-0.011509648,0.687794,0.25866097,0.027458837,0.5260361,0.6193968,1.0004647,0.12855165,0.17387916,0.79044783,0.8954941,-0.2276619,-0.020291049,0.40989995,697.47253,784.10254,799.81683,785.7143,972.27106,0.0,0.0,0.16778564453125,0.03887939453125,0.9927978515625,-1.921539306640625,-3.27484130859375,-0.171966552734375,1478754.5787545787,99830036.63003662,56436043.95604395,85.48745,1.0,1.0,1.0,1.0,1.0,50.0,,0 days 00:00:00
2023-11-16 11:18:13.092,0.862561,0.64146334,0.765282,1.4167876,1.0441674,0.20989163,-0.032068048,0.687794,0.25866097,0.12081259,0.5260361,0.6193968,1.0004647,0.12150418,0.16057466,0.79044783,0.8954941,-0.22967564,-0.042746212,0.40989995,689.81683,783.69965,805.8608,782.0879,733.73627,0.0,0.0,0.16778564453125,0.03887939453125,0.9927978515625,-1.921539306640625,-3.27484130859375,-0.171966552734375,1478754.5787545787,99830036.63003662,56436043.95604395,85.48745,1.0,1.0,1.0,1.0,1.0,50.0,,0 days 00:00:00
2023-11-16 11:18:13.094,0.862561,0.64146334,0.765282,1.4167876,1.0441674,0.20989163,-0.032068048,0.687794,0.25866097,0.12081259,0.5260361,0.6193968,1.0004647,0.12150418,0.16057466,0.79044783,0.8954941,-0.22967564,-0.042746212,0.40989995,697.8755,792.1612,809.89014,805.05493,753.0769,0.0,0.0,0.16778564453125,0.03887939453125,0.9927978515625,-1.921539306640625,-3.27484130859375,-0.171966552734375,1478754.5787545787,99830036.63003662,56436043.95604395,85.48745,1.0,1.0,1.0,1.0,1.0,50.0,,0 days 00:00:00.002000
2023-11-16 11:18:13.094,0.862561,0.64146334,0.765282,1.4167876,1.0441674,0.20989163,-0.032068048,0.687794,0.25866097,0.12081259,0.5260361,0.6193968,1.0004647,0.12150418,0.16057466,0.79044783,0.8954941,-0.22967564,-0.042746212,0.40989995,701.0989,788.1319,813.91943,811.9048,798.60803,0.0,0.0,0.16778564453125,0.03887939453125,0.9927978515625,-1.921539306640625,-3.27484130859375,-0.171966552734375,1478754.5787545787,99830036.63003662,56436043.95604395,85.48745,1.0,1.0,1.0,1.0,1.0,50.0,,0 days 00:00:00
2023-11-16 11:18:13.118,0.862561,0.64146334,0.765282,1.4167876,1.0441674,0.20989163,-0.032068048,0.687794,0.25866097,0.12081259,0.5260361,0.6193968,1.0004647,0.12150418,0.16057466,0.79044783,0.8954941,-0.22967564,-0.042746212,0.40989995,707.1429,786.52014,805.05493,803.44324,779.67035,0.0,0.0,0.16778564453125,0.03887939453125,0.9927978515625,-1.921539306640625,-3.27484130859375,-0.171966552734375,1481978.0219780218,99860659.34065934,56494065.93406593,85.317345,1.0,1.0,1.0,1.0,1.0,50.0,,0 days 00:00:00.024000
2023-11-16 11:18:13.118,0.862561,0.64146334,0.765282,1.4167876,1.0441674,0.20989163,-0.032068048,0.687794,0.25866097,0.12081259,0.5260361,0.6193968,1.0004647,0.12150418,0.16057466,0.79044783,0.8954941,-0.22967564,-0.042746212,0.40989995,704.7253,790.9524,802.23444,785.31134,726.08057,0.0,0.0,0.16778564453125,0.03887939453125,0.9927978515625,-1.921539306640625,-3.27484130859375,-0.171966552734375,1481978.0219780218,99860659.34065934,56494065.93406593,85.317345,1.0,1.0,1.0,1.0,1.0,50.0,,0 days 00:00:00
2023-11-16 11:18:13.119,0.862561,0.64146334,0.765282,1.4167876,1.0441674,0.20989163,-0.032068048,0.687794,0.25866097,0.12081259,0.5260361,0.6193968,1.0004647,0.12150418,0.16057466,0.79044783,0.8954941,-0.22967564,-0.042746212,0.40989995,703.91943,788.5348,798.20514,771.6117,738.5714,0.0,0.0,0.16778564453125,0.03887939453125,0.9927978515625,-1.921539306640625,-3.27484130859375,-0.171966552734375,1481978.0219780218,99860659.34065934,56494065.93406593,85.317345,1.0,1.0,1.0,1.0,1.0,50.0,,0 days 00:00:00.001000
2023-11-16 11:18:13.119,0.862561,0.64146334,0.765282,1.4167876,1.0441674,0.20989163,-0.032068048,0.687794,0.25866097,0.12081259,0.5260361,0.6193968,1.0004647,0.12150418,0.16057466,0.79044783,0.8954941,-0.22967564,-0.042746212,0.40989995,701.9048,782.8938,790.14655,758.71796,772.01465,0.0,0.0,0.16778564453125,0.03887939453125,0.9927978515625,-1.921539306640625,-3.27484130859375,-0.171966552734375,1481978.0219780218,99860659.34065934,56494065.93406593,85.317345,1.0,1.0,1.0,1.0,1.0,50.0,,0 days 00:00:00
2023-11-16 11:18:13.119,0.862561,0.64146334,0.765282,1.4167876,1.0441674,0.20989163,-0.032068048,0.687794,0.25866097,0.12081259,0.5260361,0.6193968,1.0004647,0.12150418,0.16057466,0.79044783,0.8954941,-0.22967564,-0.042746212,0.40989995,679.7436,775.2381,795.78754,765.9707,762.3443,0.0,0.0,0.16778564453125,0.03887939453125,0.9927978515625,-1.921539306640625,-3.27484130859375,-0.171966552734375,1481978.0219780218,99860659.34065934,56494065.93406593,85.317345,1.0,1.0,1.0,1.0,1.0,50.0,,0 days 00:00:00
2023-11-16 11:18:13.120,0.862561,0.64146334,0.765282,1.4167876,1.0441674,0.20989163,-0.032068048,0.687794,0.25866097,0.12081259,0.5260361,0.6193968,1.0004647,0.12150418,0.16057466,0.79044783,0.8954941,-0.22967564,-0.042746212,0.40989995,687.8022,780.87915,801.8315,791.75824,724.0659,0.0,0.0,0.16778564453125,0.03887939453125,0.9927978515625,-1.921539306640625,-3.27484130859375,-0.171966552734375,1481978.0219780218,99860659.34065934,56494065.93406593,85.317345,1.0,1.0,1.0,1.0,1.0,50.0,,0 days 00:00:00.001000
2023-11-16 11:18:13.120,0.862561,0.64146334,0.765282,1.4167876,1.0441674,0.20989163,-0.032068048,0.687794,0.25866097,0.12081259,0.5260361,0.6193968,1.0004647,0.12150418,0.16057466,0.79044783,0.8954941,-0.22967564,-0.042746212,0.40989995,706.7399,793.36993,802.6374,796.5934,852.6007,0.0,0.0,0.16778564453125,0.03887939453125,0.9927978515625,-1.921539306640625,-3.27484130859375,-0.171966552734375,1481978.0219780218,99860659.34065934,56494065.93406593,85.317345,1.0,1.0,1.0,1.0,1.0,50.0,,0 days 00:00:00
2023-11-16 11:18:13.120,0.862561,0.64146334,0.765282,1.4167876,1.0441674,0.20989163,-0.032068048,0.687794,0.25866097,0.12081259,0.5260361,0.6193968,1.0004647,0.12150418,0.16057466,0.79044783,0.8954941,-0.22967564,-0.042746212,0.40989995,691.8315,792.1612,794.17584,774.0293,974.2857,0.0,0.0,0.16778564453125,0.03887939453125,0.9927978515625,-1.921539306640625,-3.27484130859375,-0.171966552734375,1481978.0219780218,99860659.34065934,56494065.93406593,85.317345,1.0,1.0,1.0,1.0,1.0,50.0,,0 days 00:00:00
2023-11-16 11:18:13.121,0.862561,0.64146334,0.765282,1.4167876,1.0441674,0.20989163,-0.032068048,0.687794,0.25866097,0.12081259,0.5260361,0.6193968,1.0004647,0.12150418,0.16057466,0.79044783,0.8954941,-0.22967564,-0.042746212,0.40989995,678.93774,788.5348,791.75824,774.83514,810.696,0.0,0.0,0.16778564453125,0.03887939453125,0.9927978515625,-1.921539306640625,-3.27484130859375,-0.171966552734375,1481978.0219780218,99860659.34065934,56494065.93406593,85.317345,1.0,1.0,1.0,1.0,1.0,50.0,,0 days 00:00:00.001000
2023-11-16 11:18:13.121,0.862561,0.64146334,0.765282,1.4167876,1.0441674,0.20989163,-0.032068048,0.687794,0.25866097,0.12081259,0.5260361,0.6193968,1.0004647,0.12150418,0.16057466,0.79044783,0.8954941,-0.22967564,-0.042746212,0.40989995,676.9231,789.7436,791.3553,775.2381,738.5714,0.0,0.0,0.16778564453125,0.03887939453125,0.9927978515625,-1.921539306640625,-3.27484130859375,-0.171966552734375,1481978.0219780218,99860659.34065934,56494065.93406593,85.317345,1.0,1.0,1.0,1.0,1.0,50.0,,0 days 00:00:00
2023-11-16 11:18:13.121,0.862561,0.64146334,0.765282,1.4167876,1.0441674,0.20989163,-0.032068048,0.687794,0.25866097,0.12081259,0.5260361,0.6193968,1.0004647,0.12150418,0.16057466,0.79044783,0.8954941,-0.22967564,-0.042746212,0.40989995,693.0403,794.9817,788.93774,762.74725,765.9707,0.0,0.0,0.16778564453125,0.03887939453125,0.9927978515625,-1.921539306640625,-3.27484130859375,-0.171966552734375,1481978.0219780218,99860659.34065934,56494065.93406593,85.317345,1.0,1.0,1.0,1.0,1.0,50.0,,0 days 00:00:00
2023-11-16 11:18:13.122,0.862561,0.64146334,0.765282,1.4167876,1.0441674,0.20989163,-0.032068048,0.687794,0.25866097,0.12081259,0.5260361,0.6193968,1.0004647,0.12150418,0.16057466,0.79044783,0.8954941,-0.22967564,-0.042746212,0.40989995,708.7546,797.3993,796.5934,785.31134,786.52014,0.0,0.0,0.16778564453125,0.03887939453125,0.9927978515625,-1.921539306640625,-3.27484130859375,-0.171966552734375,1481978.0219780218,99860659.34065934,56494065.93406593,85.317345,1.0,1.0,1.0,1.0,1.0,50.0,,0 days 00:00:00.001000
2023-11-16 11:18:13.180,0.862561,0.64146334,0.765282,1.4167876,1.0441674,0.20989163,-0.032068048,0.687794,0.25866097,0.12081259,0.5260361,0.6193968,1.0004647,0.12150418,0.16057466,0.79044783,0.8954941,-0.22967564,-0.042746212,0.40989995,704.7253,794.57874,796.1905,798.20514,782.8938,0.0,0.0,0.15557861328125,0.04083251953125,0.97845458984375,3.147735595703125,-4.94964599609375,6.32537841796875,1481978.0219780218,99860659.34065934,56494065.93406593,85.317345,1.0,1.0,1.0,1.0,1.0,50.0,,0 days 00:00:00.058000
2023-11-16 11:18:13.181,0.862561,0.64146334,0.765282,1.4167876,1.0441674,0.20989163,-0.032068048,0.687794,0.25866097,0.12081259,0.5260361,0.6193968,1.0004647,0.12150418,0.16057466,0.79044783,0.8954941,-0.22967564,-0.042746212,0.40989995,689.81683,791.75824,790.54944,786.52014,763.5531,0.0,0.0,0.15557861328125,0.04083251953125,0.97845458984375,3.147735595703125,-4.94964599609375,6.32537841796875,1481978.0219780218,99860659.34065934,56494065.93406593,85.317345,1.0,1.0,1.0,1.0,1.0,50.0,,0 days 00:00:00.001000
2023-11-16 11:18:13.181,0.862561,0.64146334,0.765282,1.4167876,1.0441674,0.20989163,-0.032068048,0.687794,0.25866097,0.12081259,0.5260361,0.6193968,1.0004647,0.12150418,0.16057466,0.79044783,0.8954941,-0.22967564,-0.042746212,0.40989995,687.8022,793.36993,793.7729,782.0879,765.16486,0.0,0.0,0.15557861328125,0.04083251953125,0.97845458984375,3.147735595703125,-4.94964599609375,6.32537841796875,1481978.0219780218,99860659.34065934,56494065.93406593,85.317345,1.0,1.0,1.0,1.0,1.0,50.0,,0 days 00:00:00
2023-11-16 11:18:13.182,0.862561,0.64146334,0.765282,1.4167876,1.0441674,0.20989163,-0.032068048,0.687794,0.25866097,0.12081259,0.5260361,0.6193968,1.0004647,0.12150418,0.16057466,0.79044783,0.8954941,-0.22967564,-0.042746212,0.40989995,705.9341,799.81683,793.36993,788.1319,752.674,0.0,0.0,0.15557861328125,0.04083251953125,0.97845458984375,3.147735595703125,-4.94964599609375,6.32537841796875,1481978.0219780218,99860659.34065934,56494065.93406593,85.317345,1.0,1.0,1.0,1.0,1.0,50.0,,0 days 00:00:00.001000
2023-11-16 11:18:13.183,0.862561,0.64146334,0.765282,1.4167876,1.0441674,0.20989163,-0.032068048,0.687794,0.25866097,0.12081259,0.5260361,0.6193968,1.0004647,0.12150418,0.16057466,0.79044783,0.8954941,-0.22967564,-0.042746212,0.40989995,699.4872,799.81683,794.57874,792.96704,782.0879,0.0,0.0,0.15557861328125,0.04083251953125,0.97845458984375,3.147735595703125,-4.94964599609375,6.32537841796875,1481978.0219780218,99860659.34065934,56494065.93406593,85.317345,1.0,1.0,1.0,1.0,1.0,50.0,,0 days 00:00:00.001000
2023-11-16 11:18:13.183,0.862561,0.64146334,0.765282,1.4167876,1.0441674,0.20989163,-0.032068048,0.687794,0.25866097,0.12081259,0.5260361,0.6193968,1.0004647,0.12150418,0.16057466,0.79044783,0.8954941,-0.22967564,-0.042746212,0.40989995,684.17584,795.78754,789.34064,776.04395,870.7326,0.0,0.0,0.15557861328125,0.04083251953125,0.97845458984375,3.147735595703125,-4.94964599609375,6.32537841796875,1481978.0219780218,99860659.34065934,56494065.93406593,85.317345,1.0,1.0,1.0,1.0,1.0,50.0,,0 days 00:00:00
2023-11-16 11:18:13.184,0.862561,0.64146334,0.765282,1.4167876,1.0441674,0.20989163,-0.032068048,0.687794,0.25866097,0.12081259,0.5260361,0.6193968,1.0004647,0.12150418,0.16057466,0.79044783,0.8954941,-0.22967564,-0.042746212,0.40989995,695.4579,797.8022,784.5055,771.6117,1095.5677,0.0,0.0,0.15557861328125,0.04083251953125,0.97845458984375,3.147735595703125,-4.94964599609375,6.32537841796875,1481978.0219780218,99860659.34065934,56494065.93406593,85.317345,1.0,1.0,1.0,1.0,1.0,50.0,,0 days 00:00:00.001000
2023-11-16 11:18:13.184,0.862561,0.64146334,0.765282,1.4167876,1.0441674,0.20989163,-0.032068048,0.687794,0.25866097,0.12081259,0.5260361,0.6193968,1.0004647,0.12150418,0.16057466,0.79044783,0.8954941,-0.22967564,-0.042746212,0.40989995,717.2161,799.81683,788.5348,779.2674,1031.0989,0.0,0.0,0.15557861328125,0.04083251953125,0.97845458984375,3.147735595703125,-4.94964599609375,6.32537841796875,1481978.0219780218,99860659.34065934,56494065.93406593,85.317345,1.0,1.0,1.0,1.0,1.0,50.0,,0 days 00:00:00
2023-11-16 11:18:13.185,0.862561,0.64146334,0.765282,1.4167876,1.0441674,0.20989163,-0.032068048,0.687794,0.25866097,0.12081259,0.5260361,0.6193968,1.0004647,0.12150418,0.16057466,0.79044783,0.8954941,-0.22967564,-0.042746212,0.40989995,706.7399,796.99634,796.5934,790.9524,777.25275,0.0,0.0,0.15557861328125,0.04083251953125,0.97845458984375,3.147735595703125,-4.94964599609375,6.32537841796875,1481978.0219780218,99860659.34065934,56494065.93406593,85.317345,1.0,1.0,1.0,1.0,1.0,50.0,,0 days 00:00:00.001000
2023-11-16 11:18:13.185,0.862561,0.64146334,0.765282,1.4167876,1.0441674,0.20989163,-0.032068048,0.687794,0.25866097,0.12081259,0.5260361,0.6193968,1.0004647,0.12150418,0.16057466,0.79044783,0.8954941,-0.22967564,-0.042746212,0.40989995,683.7729,792.1612,788.93774,780.07324,826.8132,0.0,0.0,0.15557861328125,0.04083251953125,0.97845458984375,3.147735595703125,-4.94964599609375,6.32537841796875,1481978.0219780218,99860659.34065934,56494065.93406593,85.317345,1.0,1.0,1.0,1.0,1.0,50.0,,0 days 00:00:00
2023-11-16 11:18:13.186,0.862561,0.64146334,0.765282,1.4167876,1.0441674,0.20989163,-0.032068048,0.687794,0.25866097,0.12081259,0.5260361,0.6193968,1.0004647,0.12150418,0.16057466,0.79044783,0.8954941,-0.22967564,-0.042746212,0.40989995,682.96704,792.5641,782.8938,779.67035,944.4689,0.0,0.0,0.15557861328125,0.04083251953125,0.97845458984375,3.147735595703125,-4.94964599609375,6.32537841796875,1481978.0219780218,99860659.34065934,56494065.93406593,85.317345,1.0,1.0,1.0,1.0,1.0,50.0,,0 days 00:00:00.001000
2023-11-16 11:18:13.186,0.862561,0.61792314,0.80094886,1.4167876,1.0441674,0.17892034,-0.03054563,0.687794,0.25866097,0.17027327,0.5260361,0.6193968,1.0004647,0.10927017,0.14767233,0.79044783,0.8954941,-0.22576429,-0.055600643,0.40989995,703.5165,796.99634,791.3553,789.7436,832.4542,0.0,0.0,0.15557861328125,0.04083251953125,0.97845458984375,3.147735595703125,-4.94964599609375,6.32537841796875,1481978.0219780218,99860659.34065934,56494065.93406593,85.317345,1.0,1.0,1.0,1.0,1.0,50.0,,0 days 00:00:00
2023-11-16 11:18:13.220,0.862561,0.61792314,0.80094886,1.4167876,1.0441674,0.17892034,-0.03054563,0.687794,0.25866097,0.17027327,0.5260361,0.6193968,1.0004647,0.10927017,0.14767233,0.79044783,0.8954941,-0.22576429,-0.055600643,0.40989995,730.10986,792.5641,789.7436,788.1319,745.42126,0.0,0.0,0.1260986328125,0.05975341796875,0.9873046875,6.0711669921875,-4.119720458984375,6.041259765625,1461025.641025641,99763956.04395604,56460219.78021978,85.15719,1.0,1.0,1.0,1.0,1.0,50.0,,0 days 00:00:00.034000
2023-11-16 11:18:13.221,0.862561,0.61792314,0.80094886,1.4167876,1.0441674,0.17892034,-0.03054563,0.687794,0.25866097,0.17027327,0.5260361,0.6193968,1.0004647,0.10927017,0.14767233,0.79044783,0.8954941,-0.22576429,-0.055600643,0.40989995,717.619,793.7729,779.2674,776.8498,747.8388,0.0,0.0,0.1260986328125,0.05975341796875,0.9873046875,6.0711669921875,-4.119720458984375,6.041259765625,1461025.641025641,99763956.04395604,56460219.78021978,85.15719,1.0,1.0,1.0,1.0,1.0,50.0,,0 days 00:00:00.001000
2023-11-16 11:18:13.221,0.862561,0.61792314,0.80094886,1.4167876,1.0441674,0.17892034,-0.03054563,0.687794,0.25866097,0.17027327,0.5260361,0.6193968,1.0004647,0.10927017,0.14767233,0.79044783,0.8954941,-0.22576429,-0.055600643,0.40989995,694.2491,794.57874,778.0586,780.07324,755.09155,0.0,0.0,0.1260986328125,0.05975341796875,0.9873046875,6.0711669921875,-4.119720458984375,6.041259765625,1461025.641025641,99763956.04395604,56460219.78021978,85.15719,1.0,1.0,1.0,1.0,1.0,50.0,,0 days 00:00:00
2023-11-16 11:18:13.222,0.862561,0.61792314,0.80094886,1.4167876,1.0441674,0.17892034,-0.03054563,0.687794,0.25866097,0.17027327,0.5260361,0.6193968,1.0004647,0.10927017,0.14767233,0.79044783,0.8954941,-0.22576429,-0.055600643,0.40989995,697.47253,794.17584,786.9231,802.6374,774.43225,0.0,0.0,0.1260986328125,0.05975341796875,0.9873046875,6.0711669921875,-4.119720458984375,6.041259765625,1461025.641025641,99763956.04395604,56460219.78021978,85.15719,1.0,1.0,1.0,1.0,1.0,50.0,,0 days 00:00:00.001000
2023-11-16 11:18:13.222,0.862561,0.61792314,0.80094886,1.4167876,1.0441674,0.17892034,-0.03054563,0.687794,0.25866097,0.17027327,0.5260361,0.6193968,1.0004647,0.10927017,0.14767233,0.79044783,0.8954941,-0.22576429,-0.055600643,0.40989995,709.5604,798.20514,793.36993,797.8022,780.87915,0.0,0.0,0.1260986328125,0.05975341796875,0.9873046875,6.0711669921875,-4.119720458984375,6.041259765625,1461025.641025641,99763956.04395604,56460219.78021978,85.15719,1.0,1.0,1.0,1.0,1.0,50.0,,0 days 00:00:00
2023-11-16 11:18:13.223,0.862561,0.61792314,0.80094886,1.4167876,1.0441674,0.17892034,-0.03054563,0.687794,0.25866097,0.17027327,0.5260361,0.6193968,1.0004647,0.10927017,0.14767233,0.79044783,0.8954941,-0.22576429,-0.055600643,0.40989995,710.3663,796.5934,793.7729,788.93774,860.65936,0.0,0.0,0.1260986328125,0.05975341796875,0.9873046875,6.0711669921875,-4.119720458984375,6.041259765625,1461025.641025641,99763956.04395604,56460219.78021978,85.15719,1.0,1.0,1.0,1.0,1.0,50.0,,0 days 00:00:00.001000
2023-11-16 11:18:13.224,0.862561,0.61792314,0.80094886,1.4167876,1.0441674,0.17892034,-0.03054563,0.687794,0.25866097,0.17027327,0.5260361,0.6193968,1.0004647,0.10927017,0.14767233,0.79044783,0.8954941,-0.22576429,-0.055600643,0.40989995,700.293,795.78754,794.17584,807.0696,885.64105,0.0,0.0,0.1260986328125,0.05975341796875,0.9873046875,6.0711669921875,-4.119720458984375,6.041259765625,1461025.641025641,99763956.04395604,56460219.78021978,85.15719,1.0,1.0,1.0,1.0,1.0,50.0,,0 days 00:00:00.001000
2023-11-16 11:18:13.224,0.862561,0.61792314,0.80094886,1.4167876,1.0441674,0.17892034,-0.03054563,0.687794,0.25866097,0.17027327,0.5260361,0.6193968,1.0004647,0.10927017,0.14767233,0.79044783,0.8954941,-0.22576429,-0.055600643,0.40989995,680.9524,790.54944,792.96704,797.3993,817.5458,0.0,0.0,0.1260986328125,0.05975341796875,0.9873046875,6.0711669921875,-4.119720458984375,6.041259765625,1461025.641025641,99763956.04395604,56460219.78021978,85.15719,1.0,1.0,1.0,1.0,1.0,50.0,,0 days 00:00:00
2023-11-16 11:18:13.225,0.862561,0.61792314,0.80094886,1.4167876,1.0441674,0.17892034,-0.03054563,0.687794,0.25866097,0.17027327,0.5260361,0.6193968,1.0004647,0.10927017,0.14767233,0.79044783,0.8954941,-0.22576429,-0.055600643,0.40989995,699.89014,788.1319,795.78754,788.1319,837.28937,0.0,0.0,0.1260986328125,0.05975341796875,0.9873046875,6.0711669921875,-4.119720458984375,6.041259765625,1461025.641025641,99763956.04395604,56460219.78021978,85.15719,1.0,1.0,1.0,1.0,1.0,50.0,,0 days 00:00:00.001000
2023-11-16 11:18:13.225,0.862561,0.61792314,0.80094886,1.4167876,1.0441674,0.17892034,-0.03054563,0.687794,0.25866097,0.17027327,0.5260361,0.6193968,1.0004647,0.10927017,0.14767233,0.79044783,0.8954941,-0.22576429,-0.055600643,0.40989995,721.2454,796.5934,794.17584,807.8755,1036.337,0.0,0.0,0.1260986328125,0.05975341796875,0.9873046875,6.0711669921875,-4.119720458984375,6.041259765625,1461025.641025641,99763956.04395604,56460219.78021978,85.15719,1.0,1.0,1.0,1.0,1.0,50.0,,0 days 00:00:00
2023-11-16 11:18:13.226,0.862561,0.61792314,0.80094886,1.4167876,1.0441674,0.17892034,-0.03054563,0.687794,0.25866097,0.17027327,0.5260361,0.6193968,1.0004647,0.10927017,0.14767233,0.79044783,0.8954941,-0.22576429,-0.055600643,0.40989995,716.0073,798.20514,790.54944,811.9048,1122.967,0.0,0.0,0.1260986328125,0.05975341796875,0.9873046875,6.0711669921875,-4.119720458984375,6.041259765625,1461025.641025641,99763956.04395604,56460219.78021978,85.15719,1.0,1.0,1.0,1.0,1.0,50.0,,0 days 00:00:00.001000
2023-11-16 11:18:13.226,0.862561,0.61792314,0.80094886,1.4167876,1.0441674,0.17892034,-0.03054563,0.687794,0.25866097,0.17027327,0.5260361,0.6193968,1.0004647,0.10927017,0.14767233,0.79044783,0.8954941,-0.22576429,-0.055600643,0.40989995,699.4872,792.96704,790.54944,791.3553,911.02563,0.0,0.0,0.1260986328125,0.05975341796875,0.9873046875,6.0711669921875,-4.119720458984375,6.041259765625,1461025.641025641,99763956.04395604,56460219.78021978,85.15719,1.0,1.0,1.0,1.0,1.0,50.0,,0 days 00:00:00
2023-11-16 11:18:13.276,0.862561,0.61792314,0.80094886,1.4167876,1.0441674,0.17892034,-0.03054563,0.687794,0.25866097,0.17027327,0.5260361,0.6193968,1.0004647,0.10927017,0.14767233,0.79044783,0.8954941,-0.22576429,-0.055600643,0.40989995,675.7143,796.99634,791.3553,785.31134,821.5751,0.0,0.0,0.13348388671875,0.056640625,1.0068359375,3.6785888671875,-2.041168212890625,0.814971923828125,1461025.641025641,99763956.04395604,56460219.78021978,85.15719,1.0,1.0,1.0,1.0,1.0,50.0,,0 days 00:00:00.050000
2023-11-16 11:18:13.277,0.862561,0.61792314,0.80094886,1.4167876,1.0441674,0.17892034,-0.03054563,0.687794,0.25866097,0.17027327,0.5260361,0.6193968,1.0004647,0.10927017,0.14767233,0.79044783,0.8954941,-0.22576429,-0.055600643,0.40989995,678.1319,796.99634,787.72894,797.8022,798.20514,0.0,0.0,0.13348388671875,0.056640625,1.0068359375,3.6785888671875,-2.041168212890625,0.814971923828125,1461025.641025641,99763956.04395604,56460219.78021978,85.15719,1.0,1.0,1.0,1.0,1.0,50.0,,0 days 00:00:00.001000
2023-11-16 11:18:13.278,0.862561,0.61792314,0.80094886,1.4167876,1.0441674,0.17892034,-0.03054563,0.687794,0.25866097,0.17027327,0.5260361,0.6193968,1.0004647,0.10927017,0.14767233,0.79044783,0.8954941,-0.22576429,-0.055600643,0.40989995,668.0586,788.93774,788.1319,800.2198,806.6667,0.0,0.0,0.13348388671875,0.056640625,1.0068359375,3.6785888671875,-2.041168212890625,0.814971923828125,1461025.641025641,99763956.04395604,56460219.78021978,85.15719,1.0,1.0,1.0,1.0,1.0,50.0,,0 days 00:00:00.001000
2023-11-16 11:18:13.278,0.862561,0.61792314,0.80094886,1.4167876,1.0441674,0.17892034,-0.03054563,0.687794,0.25866097,0.17027327,0.5260361,0.6193968,1.0004647,0.10927017,0.14767233,0.79044783,0.8954941,-0.22576429,-0.055600643,0.40989995,666.04395,794.17584,790.54944,801.02563,822.7839,0.0,0.0,0.13348388671875,0.056640625,1.0068359375,3.6785888671875,-2.041168212890625,0.814971923828125,1461025.641025641,99763956.04395604,56460219.78021978,85.15719,1.0,1.0,1.0,1.0,1.0,50.0,,0 days 00:00:00
2023-11-16 11:18:13.278,0.862561,0.61792314,0.80094886,1.4167876,1.0441674,0.17892034,-0.03054563,0.687794,0.25866097,0.17027327,0.5260361,0.6193968,1.0004647,0.10927017,0.14767233,0.79044783,0.8954941,-0.22576429,-0.055600643,0.40989995,671.685,798.20514,790.9524,801.4286,824.3956,0.0,0.0,0.13348388671875,0.056640625,1.0068359375,3.6785888671875,-2.041168212890625,0.814971923828125,1461025.641025641,99763956.04395604,56460219.78021978,85.15719,1.0,1.0,1.0,1.0,1.0,50.0,,0 days 00:00:00
2023-11-16 11:18:13.279,0.862561,0.61792314,0.80094886,1.4167876,1.0441674,0.17892034,-0.03054563,0.687794,0.25866097,0.17027327,0.5260361,0.6193968,1.0004647,0.10927017,0.14767233,0.79044783,0.8954941,-0.22576429,-0.055600643,0.40989995,671.28204,793.7729,792.5641,808.2784,918.2784,0.0,0.0,0.13348388671875,0.056640625,1.0068359375,3.6785888671875,-2.041168212890625,0.814971923828125,1461025.641025641,99763956.04395604,56460219.78021978,85.15719,1.0,1.0,1.0,1.0,1.0,50.0,,0 days 00:00:00.001000
2023-11-16 11:18:13.279,0.862561,0.61792314,0.80094886,1.4167876,1.0441674,0.17892034,-0.03054563,0.687794,0.25866097,0.17027327,0.5260361,0.6193968,1.0004647,0.10927017,0.14767233,0.79044783,0.8954941,-0.22576429,-0.055600643,0.40989995,660.0,794.57874,792.5641,802.6374,906.5934,0.0,0.0,0.13348388671875,0.056640625,1.0068359375,3.6785888671875,-2.041168212890625,0.814971923828125,1461025.641025641,99763956.04395604,56460219.78021978,85.15719,1.0,1.0,1.0,1.0,1.0,50.0,,0 days 00:00:00
2023-11-16 11:18:13.280,0.862561,0.61792314,0.80094886,1.4167876,1.0441674,0.17892034,-0.03054563,0.687794,0.25866097,0.17027327,0.5260361,0.6193968,1.0004647,0.10927017,0.14767233,0.79044783,0.8954941,-0.22576429,-0.055600643,0.40989995,660.40295,796.99634,793.36993,796.1905,816.337,0.0,0.0,0.13348388671875,0.056640625,1.0068359375,3.6785888671875,-2.041168212890625,0.814971923828125,1461025.641025641,99763956.04395604,56460219.78021978,85.15719,1.0,1.0,1.0,1.0,1.0,50.0,,0 days 00:00:00.001000
2023-11-16 11:18:13.280,0.862561,0.61792314,0.80094886,1.4167876,1.0441674,0.17892034,-0.03054563,0.687794,0.25866097,0.17027327,0.5260361,0.6193968,1.0004647,0.10927017,0.14767233,0.79044783,0.8954941,-0.22576429,-0.055600643,0.40989995,677.72894,796.1905,794.57874,801.4286,824.7985,0.0,0.0,0.13348388671875,0.056640625,1.0068359375,3.6785888671875,-2.041168212890625,0.814971923828125,1461025.641025641,99763956.04395604,56460219.78021978,85.15719,1.0,1.0,1.0,1.0,1.0,50.0,,0 days 00:00:00
2023-11-16 11:18:13.281,0.862561,0.61792314,0.80094886,1.4167876,1.0441674,0.17892034,-0.03054563,0.687794,0.25866097,0.17027327,0.5260361,0.6193968,1.0004647,0.10927017,0.14767233,0.79044783,0.8954941,-0.22576429,-0.055600643,0.40989995,707.1429,792.96704,794.9817,804.65204,991.6117,0.0,0.0,0.13348388671875,0.056640625,1.0068359375,3.6785888671875,-2.041168212890625,0.814971923828125,1461025.641025641,99763956.04395604,56460219.78021978,85.15719,1.0,1.0,1.0,1.0,1.0,50.0,,0 days 00:00:00.001000
2023-11-16 11:18:13.281,0.862561,0.61792314,0.80094886,1.4167876,1.0441674,0.17892034,-0.03054563,0.687794,0.25866097,0.17027327,0.5260361,0.6193968,1.0004647,0.10927017,0.14767233,0.79044783,0.8954941,-0.22576429,-0.055600643,0.40989995,722.4542,791.75824,792.1612,788.93774,899.7436,0.0,0.0,0.13348388671875,0.056640625,1.0068359375,3.6785888671875,-2.041168212890625,0.814971923828125,1461025.641025641,99763956.04395604,56460219.78021978,85.15719,1.0,1.0,1.0,1.0,1.0,50.0,,0 days 00:00:00
2023-11-16 11:18:13.281,0.862561,0.61792314,0.80094886,1.4167876,1.0441674,0.17892034,-0.03054563,0.687794,0.25866097,0.17027327,0.5260361,0.6193968,1.0004647,0.10927017,0.14767233,0.79044783,0.8954941,-0.22576429,-0.055600643,0.40989995,707.1429,792.5641,790.54944,784.5055,743.4066,0.0,0.0,0.13348388671875,0.056640625,1.0068359375,3.6785888671875,-2.041168212890625,0.814971923828125,1461025.641025641,99763956.04395604,56460219.78021978,85.15719,1.0,1.0,1.0,1.0,1.0,50.0,,0 days 00:00:00
2023-11-16 11:18:13.318,0.862561,0.61792314,0.80094886,1.4167876,1.0441674,0.17892034,-0.03054563,0.687794,0.25866097,0.17027327,0.5260361,0.6193968,1.0004647,0.10927017,0.14767233,0.79044783,0.8954941,-0.22576429,-0.055600643,0.40989995,709.15753,791.75824,797.8022,803.44324,855.42126,0.0,0.0,0.1168212890625,0.0599365234375,1.00518798828125,1.532745361328125,-3.45428466796875,-3.4393310546875,1453772.8937728938,99747838.82783882,56479560.439560436,85.00641,1.0,1.0,1.0,1.0,1.0,50.0,,0 days 00:00:00.037000
2023-11-16 11:18:13.319,0.862561,0.59175503,0.80094886,1.4167876,1.0441674,0.15216546,-0.03054563,0.687794,0.25866097,0.19503897,0.5260361,0.6193968,1.0004647,0.09575839,0.14767233,0.79044783,0.8954941,-0.21803306,-0.055600643,0.40989995,721.2454,795.38464,793.36993,804.65204,868.71796,0.0,0.0,0.1168212890625,0.0599365234375,1.00518798828125,1.532745361328125,-3.45428466796875,-3.4393310546875,1453772.8937728938,99747838.82783882,56479560.439560436,85.00641,1.0,1.0,1.0,1.0,1.0,50.0,,0 days 00:00:00.001000
2023-11-16 11:18:13.322,0.862561,0.59175503,0.80094886,1.4167876,1.0441674,0.15216546,-0.03054563,0.687794,0.25866097,0.19503897,0.5260361,0.6193968,1.0004647,0.09575839,0.14767233,0.79044783,0.8954941,-0.21803306,-0.055600643,0.40989995,723.2601,796.1905,786.9231,796.99634,767.1795,0.0,0.0,0.1168212890625,0.0599365234375,1.00518798828125,1.532745361328125,-3.45428466796875,-3.4393310546875,1453772.8937728938,99747838.82783882,56479560.439560436,85.00641,1.0,1.0,1.0,1.0,1.0,50.0,,0 days 00:00:00.003000
2023-11-16 11:18:13.322,0.862561,0.59175503,0.80094886,1.4167876,1.0441674,0.15216546,-0.03054563,0.687794,0.25866097,0.19503897,0.5260361,0.6193968,1.0004647,0.09575839,0.14767233,0.79044783,0.8954941,-0.21803306,-0.055600643,0.40989995,715.6044,797.3993,790.14655,802.23444,744.61536,0.0,0.0,0.1168212890625,0.0599365234375,1.00518798828125,1.532745361328125,-3.45428466796875,-3.4393310546875,1453772.8937728938,99747838.82783882,56479560.439560436,85.00641,1.0,1.0,1.0,1.0,1.0,50.0,,0 days 00:00:00
2023-11-16 11:18:13.323,0.862561,0.59175503,0.80094886,1.4167876,1.0441674,0.15216546,-0.03054563,0.687794,0.25866097,0.19503897,0.5260361,0.6193968,1.0004647,0.09575839,0.14767233,0.79044783,0.8954941,-0.21803306,-0.055600643,0.40989995,713.9927,796.5934,787.326,806.26373,765.16486,0.0,0.0,0.1168212890625,0.0599365234375,1.00518798828125,1.532745361328125,-3.45428466796875,-3.4393310546875,1453772.8937728938,99747838.82783882,56479560.439560436,85.00641,1.0,1.0,1.0,1.0,1.0,50.0,,0 days 00:00:00.001000
2023-11-16 11:18:13.323,0.862561,0.59175503,0.80094886,1.4167876,1.0441674,0.15216546,-0.03054563,0.687794,0.25866097,0.19503897,0.5260361,0.6193968,1.0004647,0.09575839,0.14767233,0.79044783,0.8954941,-0.21803306,-0.055600643,0.40989995,709.5604,792.1612,780.87915,802.23444,823.1868,0.0,0.0,0.1168212890625,0.0599365234375,1.00518798828125,1.532745361328125,-3.45428466796875,-3.4393310546875,1453772.8937728938,99747838.82783882,56479560.439560436,85.00641,1.0,1.0,1.0,1.0,1.0,50.0,,0 days 00:00:00
2023-11-16 11:18:13.324,0.862561,0.59175503,0.80094886,1.4167876,1.0441674,0.15216546,-0.03054563,0.687794,0.25866097,0.19503897,0.5260361,0.6193968,1.0004647,0.09575839,0.14767233,0.79044783,0.8954941,-0.21803306,-0.055600643,0.40989995,713.5897,786.9231,786.1172,801.8315,895.31134,0.0,0.0,0.1168212890625,0.0599365234375,1.00518798828125,1.532745361328125,-3.45428466796875,-3.4393310546875,1453772.8937728938,99747838.82783882,56479560.439560436,85.00641,1.0,1.0,1.0,1.0,1.0,50.0,,0 days 00:00:00.001000
2023-11-16 11:18:13.324,0.862561,0.59175503,0.80094886,1.4167876,1.0441674,0.15216546,-0.03054563,0.687794,0.25866097,0.19503897,0.5260361,0.6193968,1.0004647,0.09575839,0.14767233,0.79044783,0.8954941,-0.21803306,-0.055600643,0.40989995,707.1429,785.7143,792.1612,811.9048,832.8571,0.0,0.0,0.1168212890625,0.0599365234375,1.00518798828125,1.532745361328125,-3.45428466796875,-3.4393310546875,1453772.8937728938,99747838.82783882,56479560.439560436,85.00641,1.0,1.0,1.0,1.0,1.0,50.0,,0 days 00:00:00
2023-11-16 11:18:13.325,0.862561,0.59175503,0.80094886,1.4167876,1.0441674,0.15216546,-0.03054563,0.687794,0.25866097,0.19503897,0.5260361,0.6193968,1.0004647,0.09575839,0.14767233,0.79044783,0.8954941,-0.21803306,-0.055600643,0.40989995,690.6227,791.75824,786.52014,817.1429,918.2784,0.0,0.0,0.1168212890625,0.0599365234375,1.00518798828125,1.532745361328125,-3.45428466796875,-3.4393310546875,1453772.8937728938,99747838.82783882,56479560.439560436,85.00641,1.0,1.0,1.0,1.0,1.0,50.0,,0 days 00:00:00.001000
2023-11-16 11:18:13.325,0.862561,0.59175503,0.80094886,1.4167876,1.0441674,0.15216546,-0.03054563,0.687794,0.25866097,0.19503897,0.5260361,0.6193968,1.0004647,0.09575839,0.14767233,0.79044783,0.8954941,-0.21803306,-0.055600643,0.40989995,701.9048,795.78754,784.90845,811.9048,1021.02563,0.0,0.0,0.1168212890625,0.0599365234375,1.00518798828125,1.532745361328125,-3.45428466796875,-3.4393310546875,1453772.8937728938,99747838.82783882,56479560.439560436,85.00641,1.0,1.0,1.0,1.0,1.0,50.0,,0 days 00:00:00
2023-11-16 11:18:13.326,0.862561,0.59175503,0.80094886,1.4167876,1.0441674,0.15216546,-0.03054563,0.687794,0.25866097,0.19503897,0.5260361,0.6193968,1.0004647,0.09575839,0.14767233,0.79044783,0.8954941,-0.21803306,-0.055600643,0.40989995,704.7253,796.1905,782.49084,794.9817,799.011,0.0,0.0,0.1168212890625,0.0599365234375,1.00518798828125,1.532745361328125,-3.45428466796875,-3.4393310546875,1453772.8937728938,99747838.82783882,56479560.439560436,85.00641,1.0,1.0,1.0,1.0,1.0,50.0,,0 days 00:00:00.001000
2023-11-16 11:18:13.326,0.862561,0.59175503,0.80094886,1.4167876,1.0441674,0.15216546,-0.03054563,0.687794,0.25866097,0.19503897,0.5260361,0.6193968,1.0004647,0.09575839,0.14767233,0.79044783,0.8954941,-0.21803306,-0.055600643,0.40989995,695.4579,799.41394,779.67035,787.72894,720.0366,0.0,0.0,0.1168212890625,0.0599365234375,1.00518798828125,1.532745361328125,-3.45428466796875,-3.4393310546875,1453772.8937728938,99747838.82783882,56479560.439560436,85.00641,1.0,1.0,1.0,1.0,1.0,50.0,,0 days 00:00:00
2023-11-16 11:18:13.364,0.862561,0.59175503,0.80094886,1.4167876,1.0441674,0.15216546,-0.03054563,0.687794,0.25866097,0.19503897,0.5260361,0.6193968,1.0004647,0.09575839,0.14767233,0.79044783,0.8954941,-0.21803306,-0.055600643,0.40989995,690.6227,799.81683,780.07324,791.3553,794.57874,0.0,0.0,0.1168212890625,0.0599365234375,1.00518798828125,1.532745361328125,-3.45428466796875,-3.4393310546875,1453772.8937728938,99747838.82783882,56479560.439560436,85.00641,1.0,1.0,1.0,1.0,1.0,50.0,,0 days 00:00:00.038000
2023-11-16 11:18:13.365,0.862561,0.59175503,0.80094886,1.4167876,1.0441674,0.15216546,-0.03054563,0.687794,0.25866097,0.19503897,0.5260361,0.6193968,1.0004647,0.09575839,0.14767233,0.79044783,0.8954941,-0.21803306,-0.055600643,0.40989995,699.89014,798.20514,781.685,799.41394,827.619,0.0,0.0,0.1168212890625,0.0599365234375,1.00518798828125,1.532745361328125,-3.45428466796875,-3.4393310546875,1453772.8937728938,99747838.82783882,56479560.439560436,85.00641,1.0,1.0,1.0,1.0,1.0,50.0,,0 days 00:00:00.001000
2023-11-16 11:18:13.366,0.862561,0.59175503,0.80094886,1.4167876,1.0441674,0.15216546,-0.03054563,0.687794,0.25866097,0.19503897,0.5260361,0.6193968,1.0004647,0.09575839,0.14767233,0.79044783,0.8954941,-0.21803306,-0.055600643,0.40989995,709.9634,798.20514,783.69965,795.38464,744.61536,0.0,0.0,0.1168212890625,0.0599365234375,1.00518798828125,1.532745361328125,-3.45428466796875,-3.4393310546875,1453772.8937728938,99747838.82783882,56479560.439560436,85.00641,1.0,1.0,1.0,1.0,1.0,50.0,,0 days 00:00:00.001000
2023-11-16 11:18:13.366,0.862561,0.59175503,0.80094886,1.4167876,1.0441674,0.15216546,-0.03054563,0.687794,0.25866097,0.19503897,0.5260361,0.6193968,1.0004647,0.09575839,0.14767233,0.79044783,0.8954941,-0.21803306,-0.055600643,0.40989995,708.3516,803.44324,789.34064,790.9524,805.4579,0.0,0.0,0.1168212890625,0.0599365234375,1.00518798828125,1.532745361328125,-3.45428466796875,-3.4393310546875,1453772.8937728938,99747838.82783882,56479560.439560436,85.00641,1.0,1.0,1.0,1.0,1.0,50.0,,0 days 00:00:00
2023-11-16 11:18:13.367,0.862561,0.59175503,0.80094886,1.4167876,1.0441674,0.15216546,-0.03054563,0.687794,0.25866097,0.19503897,0.5260361,0.6193968,1.0004647,0.09575839,0.14767233,0.79044783,0.8954941,-0.21803306,-0.055600643,0.40989995,697.0696,804.2491,788.5348,806.26373,905.78754,0.0,0.0,0.1168212890625,0.0599365234375,1.00518798828125,1.532745361328125,-3.45428466796875,-3.4393310546875,1453772.8937728938,99747838.82783882,56479560.439560436,85.00641,1.0,1.0,1.0,1.0,1.0,50.0,,0 days 00:00:00.001000
2023-11-16 11:18:13.367,0.862561,0.59175503,0.80094886,1.4167876,1.0441674,0.15216546,-0.03054563,0.687794,0.25866097,0.19503897,0.5260361,0.6193968,1.0004647,0.09575839,0.14767233,0.79044783,0.8954941,-0.21803306,-0.055600643,0.40989995,692.6374,796.5934,779.67035,807.47253,878.7912,0.0,0.0,0.1168212890625,0.0599365234375,1.00518798828125,1.532745361328125,-3.45428466796875,-3.4393310546875,1453772.8937728938,99747838.82783882,56479560.439560436,85.00641,1.0,1.0,1.0,1.0,1.0,50.0,,0 days 00:00:00
2023-11-16 11:18:13.368,0.862561,0.59175503,0.80094886,1.4167876,1.0441674,0.15216546,-0.03054563,0.687794,0.25866097,0.19503897,0.5260361,0.6193968,1.0004647,0.09575839,0.14767233,0.79044783,0.8954941,-0.21803306,-0.055600643,0.40989995,699.0842,796.1905,784.90845,788.5348,877.1795,0.0,0.0,0.1168212890625,0.0599365234375,1.00518798828125,1.532745361328125,-3.45428466796875,-3.4393310546875,1453772.8937728938,99747838.82783882,56479560.439560436,85.00641,1.0,1.0,1.0,1.0,1.0,50.0,,0 days 00:00:00.001000
2023-11-16 11:18:13.368,0.862561,0.59175503,0.80094886,1.4167876,1.0441674,0.15216546,-0.03054563,0.687794,0.25866097,0.19503897,0.5260361,0.6193968,1.0004647,0.09575839,0.14767233,0.79044783,0.8954941,-0.21803306,-0.055600643,0.40989995,693.8461,792.5641,790.14655,786.52014,851.39197,0.0,0.0,0.1168212890625,0.0599365234375,1.00518798828125,1.532745361328125,-3.45428466796875,-3.4393310546875,1453772.8937728938,99747838.82783882,56479560.439560436,85.00641,1.0,1.0,1.0,1.0,1.0,50.0,,0 days 00:00:00
2023-11-16 11:18:13.368,0.862561,0.59175503,0.80094886,1.4167876,1.0441674,0.15216546,-0.03054563,0.687794,0.25866097,0.19503897,0.5260361,0.6193968,1.0004647,0.09575839,0.14767233,0.79044783,0.8954941,-0.21803306,-0.055600643,0.40989995,697.8755,796.1905,784.5055,808.68134,1008.5348,0.0,0.0,0.1168212890625,0.0599365234375,1.00518798828125,1.532745361328125,-3.45428466796875,-3.4393310546875,1453772.8937728938,99747838.82783882,56479560.439560436,85.00641,1.0,1.0,1.0,1.0,1.0,50.0,,0 days 00:00:00
2023-11-16 11:18:13.369,0.862561,0.59175503,0.80094886,1.4167876,1.0441674,0.15216546,-0.03054563,0.687794,0.25866097,0.19503897,0.5260361,0.6193968,1.0004647,0.09575839,0.14767233,0.79044783,0.8954941,-0.21803306,-0.055600643,0.40989995,690.2198,799.011,780.87915,805.8608,1018.20514,0.0,0.0,0.1168212890625,0.0599365234375,1.00518798828125,1.532745361328125,-3.45428466796875,-3.4393310546875,1453772.8937728938,99747838.82783882,56479560.439560436,85.00641,1.0,1.0,1.0,1.0,1.0,50.0,,0 days 00:00:00.001000
2023-11-16 11:18:13.369,0.862561,0.59175503,0.80094886,1.4167876,1.0441674,0.15216546,-0.03054563,0.687794,0.25866097,0.19503897,0.5260361,0.6193968,1.0004647,0.09575839,0.14767233,0.79044783,0.8954941,-0.21803306,-0.055600643,0.40989995,672.49084,794.57874,783.2967,782.8938,789.34064,0.0,0.0,0.1168212890625,0.0599365234375,1.00518798828125,1.532745361328125,-3.45428466796875,-3.4393310546875,1453772.8937728938,99747838.82783882,56479560.439560436,85.00641,1.0,1.0,1.0,1.0,1.0,50.0,,0 days 00:00:00
2023-11-16 11:18:13.370,0.862561,0.59175503,0.80094886,1.4167876,1.0441674,0.15216546,-0.03054563,0.687794,0.25866097,0.19503897,0.5260361,0.6193968,1.0004647,0.09575839,0.14767233,0.79044783,0.8954941,-0.21803306,-0.055600643,0.40989995,684.17584,794.9817,785.31134,794.57874,761.9414,0.0,0.0,0.1168212890625,0.0599365234375,1.00518798828125,1.532745361328125,-3.45428466796875,-3.4393310546875,1453772.8937728938,99747838.82783882,56479560.439560436,85.00641,1.0,1.0,1.0,1.0,1.0,50.0,,0 days 00:00:00.001000
2023-11-16 11:18:13.397,0.862561,0.59175503,0.80094886,1.4167876,1.0441674,0.15216546,-0.03054563,0.687794,0.25866097,0.19503897,0.5260361,0.6193968,1.0004647,0.09575839,0.14767233,0.79044783,0.8954941,-0.21803306,-0.055600643,0.40989995,691.8315,800.6227,790.14655,799.81683,792.96704,0.0,0.0,0.12652587890625,0.05859375,0.99761962890625,1.77947998046875,-4.11224365234375,-4.344024658203125,1465860.8058608058,99815531.13553111,56473919.41391941,84.938324,1.0,1.0,1.0,1.0,1.0,50.0,,0 days 00:00:00.027000
2023-11-16 11:18:13.398,0.862561,0.59175503,0.80094886,1.4167876,1.0441674,0.15216546,-0.03054563,0.687794,0.25866097,0.19503897,0.5260361,0.6193968,1.0004647,0.09575839,0.14767233,0.79044783,0.8954941,-0.21803306,-0.055600643,0.40989995,668.46155,801.8315,789.34064,787.326,747.03296,0.0,0.0,0.12652587890625,0.05859375,0.99761962890625,1.77947998046875,-4.11224365234375,-4.344024658203125,1465860.8058608058,99815531.13553111,56473919.41391941,84.938324,1.0,1.0,1.0,1.0,1.0,50.0,,0 days 00:00:00.001000
2023-11-16 11:18:13.398,0.862561,0.59175503,0.80094886,1.4167876,1.0441674,0.15216546,-0.03054563,0.687794,0.25866097,0.19503897,0.5260361,0.6193968,1.0004647,0.09575839,0.14767233,0.79044783,0.8954941,-0.21803306,-0.055600643,0.40989995,661.2088,794.9817,784.90845,792.5641,761.53845,0.0,0.0,0.12652587890625,0.05859375,0.99761962890625,1.77947998046875,-4.11224365234375,-4.344024658203125,1465860.8058608058,99815531.13553111,56473919.41391941,84.938324,1.0,1.0,1.0,1.0,1.0,50.0,,0 days 00:00:00
2023-11-16 11:18:13.399,0.862561,0.5680733,0.80094886,1.3276569,1.0441674,0.12862632,-0.03054563,0.61857074,0.25866097,0.21147916,0.5260361,0.6248541,1.0004647,0.08269243,0.14767233,0.7418933,0.8954941,-0.21046297,-0.055600643,0.48436758,674.10254,797.3993,783.69965,795.78754,734.94507,0.0,0.0,0.12652587890625,0.05859375,0.99761962890625,1.77947998046875,-4.11224365234375,-4.344024658203125,1465860.8058608058,99815531.13553111,56473919.41391941,84.938324,1.0,1.0,1.0,1.0,1.0,50.0,,0 days 00:00:00.001000
2023-11-16 11:18:13.401,0.862561,0.5680733,0.80094886,1.3276569,1.0441674,0.12862632,-0.03054563,0.61857074,0.25866097,0.21147916,0.5260361,0.6248541,1.0004647,0.08269243,0.14767233,0.7418933,0.8954941,-0.21046297,-0.055600643,0.48436758,672.49084,801.02563,785.31134,787.326,685.78754,0.0,0.0,0.12652587890625,0.05859375,0.99761962890625,1.77947998046875,-4.11224365234375,-4.344024658203125,1465860.8058608058,99815531.13553111,56473919.41391941,84.938324,1.0,1.0,1.0,1.0,1.0,50.0,,0 days 00:00:00.002000
2023-11-16 11:18:13.401,0.862561,0.5680733,0.80094886,1.3276569,1.0441674,0.12862632,-0.03054563,0.61857074,0.25866097,0.21147916,0.5260361,0.6248541,1.0004647,0.08269243,0.14767233,0.7418933,0.8954941,-0.21046297,-0.055600643,0.48436758,672.0879,800.6227,783.2967,782.0879,730.5128,0.0,0.0,0.12652587890625,0.05859375,0.99761962890625,1.77947998046875,-4.11224365234375,-4.344024658203125,1465860.8058608058,99815531.13553111,56473919.41391941,84.938324,1.0,1.0,1.0,1.0,1.0,50.0,,0 days 00:00:00
2023-11-16 11:18:13.402,0.862561,0.5680733,0.80094886,1.3276569,1.0441674,0.12862632,-0.03054563,0.61857074,0.25866097,0.21147916,0.5260361,0.6248541,1.0004647,0.08269243,0.14767233,0.7418933,0.8954941,-0.21046297,-0.055600643,0.48436758,676.9231,795.78754,778.0586,781.28204,786.1172,0.0,0.0,0.12652587890625,0.05859375,0.99761962890625,1.77947998046875,-4.11224365234375,-4.344024658203125,1465860.8058608058,99815531.13553111,56473919.41391941,84.938324,1.0,1.0,1.0,1.0,1.0,50.0,,0 days 00:00:00.001000
2023-11-16 11:18:13.402,0.862561,0.5680733,0.80094886,1.3276569,1.0441674,0.12862632,-0.03054563,0.61857074,0.25866097,0.21147916,0.5260361,0.6248541,1.0004647,0.08269243,0.14767233,0.7418933,0.8954941,-0.21046297,-0.055600643,0.48436758,692.23444,798.20514,781.685,791.3553,904.9817,0.0,0.0,0.12652587890625,0.05859375,0.99761962890625,1.77947998046875,-4.11224365234375,-4.344024658203125,1465860.8058608058,99815531.13553111,56473919.41391941,84.938324,1.0,1.0,1.0,1.0,1.0,50.0,,0 days 00:00:00
2023-11-16 11:18:13.403,0.862561,0.5680733,0.80094886,1.3276569,1.0441674,0.12862632,-0.03054563,0.61857074,0.25866097,0.21147916,0.5260361,0.6248541,1.0004647,0.08269243,0.14767233,0.7418933,0.8954941,-0.21046297,-0.055600643,0.48436758,693.0403,808.2784,787.326,801.4286,951.31866,0.0,0.0,0.12652587890625,0.05859375,0.99761962890625,1.77947998046875,-4.11224365234375,-4.344024658203125,1465860.8058608058,99815531.13553111,56473919.41391941,84.938324,1.0,1.0,1.0,1.0,1.0,50.0,,0 days 00:00:00.001000
2023-11-16 11:18:13.403,0.862561,0.5680733,0.80094886,1.3276569,1.0441674,0.12862632,-0.03054563,0.61857074,0.25866097,0.21147916,0.5260361,0.6248541,1.0004647,0.08269243,0.14767233,0.7418933,0.8954941,-0.21046297,-0.055600643,0.48436758,684.17584,805.4579,785.31134,788.5348,718.8278,0.0,0.0,0.12652587890625,0.05859375,0.99761962890625,1.77947998046875,-4.11224365234375,-4.344024658203125,1465860.8058608058,99815531.13553111,56473919.41391941,84.938324,1.0,1.0,1.0,1.0,1.0,50.0,,0 days 00:00:00
2023-11-16 11:18:13.403,0.862561,0.5680733,0.80094886,1.3276569,1.0441674,0.12862632,-0.03054563,0.61857074,0.25866097,0.21147916,0.5260361,0.6248541,1.0004647,0.08269243,0.14767233,0.7418933,0.8954941,-0.21046297,-0.055600643,0.48436758,687.3993,799.011,784.5055,782.8938,655.16486,0.0,0.0,0.12652587890625,0.05859375,0.99761962890625,1.77947998046875,-4.11224365234375,-4.344024658203125,1465860.8058608058,99815531.13553111,56473919.41391941,84.938324,1.0,1.0,1.0,1.0,1.0,50.0,,0 days 00:00:00
2023-11-16 11:18:13.404,0.862561,0.5680733,0.80094886,1.3276569,1.0441674,0.12862632,-0.03054563,0.61857074,0.25866097,0.21147916,0.5260361,0.6248541,1.0004647,0.08269243,0.14767233,0.7418933,0.8954941,-0.21046297,-0.055600643,0.48436758,686.1905,797.8022,788.1319,782.8938,714.7985,0.0,0.0,0.12652587890625,0.05859375,0.99761962890625,1.77947998046875,-4.11224365234375,-4.344024658203125,1465860.8058608058,99815531.13553111,56473919.41391941,84.938324,1.0,1.0,1.0,1.0,1.0,50.0,,0 days 00:00:00.001000
2023-11-16 11:18:13.465,0.862561,0.5680733,0.80094886,1.3276569,1.0441674,0.12862632,-0.03054563,0.61857074,0.25866097,0.21147916,0.5260361,0.6248541,1.0004647,0.08269243,0.14767233,0.7418933,0.8954941,-0.21046297,-0.055600643,0.48436758,673.69965,794.17584,785.7143,775.64105,669.2674,0.0,0.0,0.1431884765625,0.0526123046875,0.9837646484375,3.36456298828125,-5.136566162109375,0.485992431640625,1465860.8058608058,99815531.13553111,56473919.41391941,84.938324,1.0,1.0,1.0,1.0,1.0,50.0,,0 days 00:00:00.061000
2023-11-16 11:18:13.466,0.862561,0.5680733,0.80094886,1.3276569,1.0441674,0.12862632,-0.03054563,0.61857074,0.25866097,0.21147916,0.5260361,0.6248541,1.0004647,0.08269243,0.14767233,0.7418933,0.8954941,-0.21046297,-0.055600643,0.48436758,668.46155,796.5934,789.7436,783.2967,595.12823,0.0,0.0,0.1431884765625,0.0526123046875,0.9837646484375,3.36456298828125,-5.136566162109375,0.485992431640625,1465860.8058608058,99815531.13553111,56473919.41391941,84.938324,1.0,1.0,1.0,1.0,1.0,50.0,,0 days 00:00:00.001000
2023-11-16 11:18:13.466,0.862561,0.5680733,0.80094886,1.3276569,1.0441674,0.12862632,-0.03054563,0.61857074,0.25866097,0.21147916,0.5260361,0.6248541,1.0004647,0.08269243,0.14767233,0.7418933,0.8954941,-0.21046297,-0.055600643,0.48436758,672.0879,797.3993,796.99634,790.9524,606.4103,0.0,0.0,0.1431884765625,0.0526123046875,0.9837646484375,3.36456298828125,-5.136566162109375,0.485992431640625,1465860.8058608058,99815531.13553111,56473919.41391941,84.938324,1.0,1.0,1.0,1.0,1.0,50.0,,0 days 00:00:00
2023-11-16 11:18:13.467,0.862561,0.5680733,0.80094886,1.3276569,1.0441674,0.12862632,-0.03054563,0.61857074,0.25866097,0.21147916,0.5260361,0.6248541,1.0004647,0.08269243,0.14767233,0.7418933,0.8954941,-0.21046297,-0.055600643,0.48436758,686.99634,790.54944,794.17584,778.0586,639.0476,0.0,0.0,0.1431884765625,0.0526123046875,0.9837646484375,3.36456298828125,-5.136566162109375,0.485992431640625,1465860.8058608058,99815531.13553111,56473919.41391941,84.938324,1.0,1.0,1.0,1.0,1.0,50.0,,0 days 00:00:00.001000
2023-11-16 11:18:13.467,0.862561,0.5680733,0.80094886,1.3276569,1.0441674,0.12862632,-0.03054563,0.61857074,0.25866097,0.21147916,0.5260361,0.6248541,1.0004647,0.08269243,0.14767233,0.7418933,0.8954941,-0.21046297,-0.055600643,0.48436758,698.68134,792.5641,789.7436,788.1319,658.7912,0.0,0.0,0.1431884765625,0.0526123046875,0.9837646484375,3.36456298828125,-5.136566162109375,0.485992431640625,1465860.8058608058,99815531.13553111,56473919.41391941,84.938324,1.0,1.0,1.0,1.0,1.0,50.0,,0 days 00:00:00
2023-11-16 11:18:13.468,0.862561,0.5680733,0.80094886,1.3276569,1.0441674,0.12862632,-0.03054563,0.61857074,0.25866097,0.21147916,0.5260361,0.6248541,1.0004647,0.08269243,0.14767233,0.7418933,0.8954941,-0.21046297,-0.055600643,0.48436758,681.75824,796.5934,797.3993,799.011,681.3553,0.0,0.0,0.1431884765625,0.0526123046875,0.9837646484375,3.36456298828125,-5.136566162109375,0.485992431640625,1465860.8058608058,99815531.13553111,56473919.41391941,84.938324,1.0,1.0,1.0,1.0,1.0,50.0,,0 days 00:00:00.001000
2023-11-16 11:18:13.468,0.862561,0.5680733,0.80094886,1.3276569,1.0441674,0.12862632,-0.03054563,0.61857074,0.25866097,0.21147916,0.5260361,0.6248541,1.0004647,0.08269243,0.14767233,0.7418933,0.8954941,-0.21046297,-0.055600643,0.48436758,668.46155,800.2198,796.1905,787.72894,692.6374,0.0,0.0,0.1431884765625,0.0526123046875,0.9837646484375,3.36456298828125,-5.136566162109375,0.485992431640625,1465860.8058608058,99815531.13553111,56473919.41391941,84.938324,1.0,1.0,1.0,1.0,1.0,50.0,,0 days 00:00:00
2023-11-16 11:18:13.469,0.862561,0.5680733,0.80094886,1.3276569,1.0441674,0.12862632,-0.03054563,0.61857074,0.25866097,0.21147916,0.5260361,0.6248541,1.0004647,0.08269243,0.14767233,0.7418933,0.8954941,-0.21046297,-0.055600643,0.48436758,684.9817,805.05493,787.326,810.293,877.98535,0.0,0.0,0.1431884765625,0.0526123046875,0.9837646484375,3.36456298828125,-5.136566162109375,0.485992431640625,1465860.8058608058,99815531.13553111,56473919.41391941,84.938324,1.0,1.0,1.0,1.0,1.0,50.0,,0 days 00:00:00.001000
2023-11-16 11:18:13.470,0.862561,0.5680733,0.80094886,1.3276569,1.0441674,0.12862632,-0.03054563,0.61857074,0.25866097,0.21147916,0.5260361,0.6248541,1.0004647,0.08269243,0.14767233,0.7418933,0.8954941,-0.21046297,-0.055600643,0.48436758,693.8461,804.65204,786.9231,798.20514,848.5714,0.0,0.0,0.1431884765625,0.0526123046875,0.9837646484375,3.36456298828125,-5.136566162109375,0.485992431640625,1465860.8058608058,99815531.13553111,56473919.41391941,84.938324,1.0,1.0,1.0,1.0,1.0,50.0,,0 days 00:00:00.001000
2023-11-16 11:18:13.470,0.862561,0.5680733,0.80094886,1.3276569,1.0441674,0.12862632,-0.03054563,0.61857074,0.25866097,0.21147916,0.5260361,0.6248541,1.0004647,0.08269243,0.14767233,0.7418933,0.8954941,-0.21046297,-0.055600643,0.48436758,701.50183,808.68134,782.8938,777.25275,618.9011,0.0,0.0,0.1431884765625,0.0526123046875,0.9837646484375,3.36456298828125,-5.136566162109375,0.485992431640625,1465860.8058608058,99815531.13553111,56473919.41391941,84.938324,1.0,1.0,1.0,1.0,1.0,50.0,,0 days 00:00:00
2023-11-16 11:18:13.471,0.862561,0.5680733,0.80094886,1.3276569,1.0441674,0.12862632,-0.03054563,0.61857074,0.25866097,0.21147916,0.5260361,0.6248541,1.0004647,0.08269243,0.14767233,0.7418933,0.8954941,-0.21046297,-0.055600643,0.48436758,696.26373,809.89014,785.31134,794.57874,705.12823,0.0,0.0,0.1431884765625,0.0526123046875,0.9837646484375,3.36456298828125,-5.136566162109375,0.485992431640625,1465860.8058608058,99815531.13553111,56473919.41391941,84.938324,1.0,1.0,1.0,1.0,1.0,50.0,,0 days 00:00:00.001000
2023-11-16 11:18:13.471,0.862561,0.5680733,0.80094886,1.3276569,1.0441674,0.12862632,-0.03054563,0.61857074,0.25866097,0.21147916,0.5260361,0.6248541,1.0004647,0.08269243,0.14767233,0.7418933,0.8954941,-0.21046297,-0.055600643,0.48436758,686.1905,794.9817,796.99634,799.81683,715.2015,0.0,0.0,0.1431884765625,0.0526123046875,0.9837646484375,3.36456298828125,-5.136566162109375,0.485992431640625,1465860.8058608058,99815531.13553111,56473919.41391941,84.938324,1.0,1.0,1.0,1.0,1.0,50.0,,0 days 00:00:00
2023-11-16 11:18:13.500,0.862561,0.5680733,0.80094886,1.3276569,1.0441674,0.12862632,-0.03054563,0.61857074,0.25866097,0.21147916,0.5260361,0.6248541,1.0004647,0.08269243,0.14767233,0.7418933,0.8954941,-0.21046297,-0.055600643,0.48436758,695.4579,793.7729,805.4579,790.14655,613.2601,0.0,0.0,0.12713623046875,0.076416015625,0.9825439453125,7.19268798828125,-4.9346923828125,5.271148681640625,1466666.6666666667,99861465.2014652,56487619.047619045,85.01756,1.0,1.0,1.0,1.0,1.0,50.0,,0 days 00:00:00.029000
2023-11-16 11:18:13.501,0.862561,0.5680733,0.80094886,1.3276569,1.0441674,0.12862632,-0.03054563,0.61857074,0.25866097,0.21147916,0.5260361,0.6248541,1.0004647,0.08269243,0.14767233,0.7418933,0.8954941,-0.21046297,-0.055600643,0.48436758,679.7436,799.011,810.293,784.10254,637.8388,0.0,0.0,0.12713623046875,0.076416015625,0.9825439453125,7.19268798828125,-4.9346923828125,5.271148681640625,1466666.6666666667,99861465.2014652,56487619.047619045,85.01756,1.0,1.0,1.0,1.0,1.0,50.0,,0 days 00:00:00.001000
2023-11-16 11:18:13.501,0.862561,0.5680733,0.80094886,1.3276569,1.0441674,0.12862632,-0.03054563,0.61857074,0.25866097,0.21147916,0.5260361,0.6248541,1.0004647,0.08269243,0.14767233,0.7418933,0.8954941,-0.21046297,-0.055600643,0.48436758,666.04395,792.1612,811.50183,792.1612,673.2967,0.0,0.0,0.12713623046875,0.076416015625,0.9825439453125,7.19268798828125,-4.9346923828125,5.271148681640625,1466666.6666666667,99861465.2014652,56487619.047619045,85.01756,1.0,1.0,1.0,1.0,1.0,50.0,,0 days 00:00:00
2023-11-16 11:18:13.502,0.862561,0.5680733,0.80094886,1.3276569,1.0441674,0.12862632,-0.03054563,0.61857074,0.25866097,0.21147916,0.5260361,0.6248541,1.0004647,0.08269243,0.14767233,0.7418933,0.8954941,-0.21046297,-0.055600643,0.48436758,662.8205,791.75824,811.9048,789.7436,650.32965,0.0,0.0,0.12713623046875,0.076416015625,0.9825439453125,7.19268798828125,-4.9346923828125,5.271148681640625,1466666.6666666667,99861465.2014652,56487619.047619045,85.01756,1.0,1.0,1.0,1.0,1.0,50.0,,0 days 00:00:00.001000
2023-11-16 11:18:13.502,0.862561,0.5680733,0.80094886,1.3276569,1.0441674,0.12862632,-0.03054563,0.61857074,0.25866097,0.21147916,0.5260361,0.6248541,1.0004647,0.08269243,0.14767233,0.7418933,0.8954941,-0.21046297,-0.055600643,0.48436758,664.43225,790.54944,812.3077,795.78754,612.0513,0.0,0.0,0.12713623046875,0.076416015625,0.9825439453125,7.19268798828125,-4.9346923828125,5.271148681640625,1466666.6666666667,99861465.2014652,56487619.047619045,85.01756,1.0,1.0,1.0,1.0,1.0,50.0,,0 days 00:00:00
2023-11-16 11:18:13.502,0.862561,0.5523645,0.80094886,1.261506,1.0441674,0.10805274,-0.03054563,0.5715619,0.25866097,0.21147916,0.5260361,0.6304377,1.0004647,0.070154645,0.14767233,0.71073735,0.8954941,-0.20744526,-0.055600643,0.5559749,669.67035,787.72894,806.26373,791.3553,649.12085,0.0,0.0,0.12713623046875,0.076416015625,0.9825439453125,7.19268798828125,-4.9346923828125,5.271148681640625,1466666.6666666667,99861465.2014652,56487619.047619045,85.01756,1.0,1.0,1.0,1.0,1.0,50.0,,0 days 00:00:00
2023-11-16 11:18:13.505,0.862561,0.5523645,0.80094886,1.261506,1.0441674,0.10805274,-0.03054563,0.5715619,0.25866097,0.21147916,0.5260361,0.6304377,1.0004647,0.070154645,0.14767233,0.71073735,0.8954941,-0.20744526,-0.055600643,0.5559749,660.0,791.75824,795.38464,782.49084,809.0842,0.0,0.0,0.12713623046875,0.076416015625,0.9825439453125,7.19268798828125,-4.9346923828125,5.271148681640625,1466666.6666666667,99861465.2014652,56487619.047619045,85.01756,1.0,1.0,1.0,1.0,1.0,50.0,,0 days 00:00:00.003000
2023-11-16 11:18:13.505,0.862561,0.5523645,0.80094886,1.261506,1.0441674,0.10805274,-0.03054563,0.5715619,0.25866097,0.21147916,0.5260361,0.6304377,1.0004647,0.070154645,0.14767233,0.71073735,0.8954941,-0.20744526,-0.055600643,0.5559749,658.7912,789.7436,794.9817,790.9524,794.57874,0.0,0.0,0.12713623046875,0.076416015625,0.9825439453125,7.19268798828125,-4.9346923828125,5.271148681640625,1466666.6666666667,99861465.2014652,56487619.047619045,85.01756,1.0,1.0,1.0,1.0,1.0,50.0,,0 days 00:00:00
2023-11-16 11:18:13.505,0.862561,0.5523645,0.80094886,1.261506,1.0441674,0.10805274,-0.03054563,0.5715619,0.25866097,0.21147916,0.5260361,0.6304377,1.0004647,0.070154645,0.14767233,0.71073735,0.8954941,-0.20744526,-0.055600643,0.5559749,665.2381,779.67035,789.7436,778.46155,627.3626,0.0,0.0,0.12713623046875,0.076416015625,0.9825439453125,7.19268798828125,-4.9346923828125,5.271148681640625,1466666.6666666667,99861465.2014652,56487619.047619045,85.01756,1.0,1.0,1.0,1.0,1.0,50.0,,0 days 00:00:00
2023-11-16 11:18:13.506,0.862561,0.5523645,0.80094886,1.261506,1.0441674,0.10805274,-0.03054563,0.5715619,0.25866097,0.21147916,0.5260361,0.6304377,1.0004647,0.070154645,0.14767233,0.71073735,0.8954941,-0.20744526,-0.055600643,0.5559749,679.34064,784.90845,784.90845,785.31134,603.9927,0.0,0.0,0.12713623046875,0.076416015625,0.9825439453125,7.19268798828125,-4.9346923828125,5.271148681640625,1466666.6666666667,99861465.2014652,56487619.047619045,85.01756,1.0,1.0,1.0,1.0,1.0,50.0,,0 days 00:00:00.001000
2023-11-16 11:18:13.506,0.862561,0.5523645,0.80094886,1.261506,1.0441674,0.10805274,-0.03054563,0.5715619,0.25866097,0.21147916,0.5260361,0.6304377,1.0004647,0.070154645,0.14767233,0.71073735,0.8954941,-0.20744526,-0.055600643,0.5559749,675.31134,792.96704,794.57874,794.57874,594.3223,0.0,0.0,0.12713623046875,0.076416015625,0.9825439453125,7.19268798828125,-4.9346923828125,5.271148681640625,1466666.6666666667,99861465.2014652,56487619.047619045,85.01756,1.0,1.0,1.0,1.0,1.0,50.0,,0 days 00:00:00
2023-11-16 11:18:13.507,0.862561,0.5523645,0.80094886,1.261506,1.0441674,0.10805274,-0.03054563,0.5715619,0.25866097,0.21147916,0.5260361,0.6304377,1.0004647,0.070154645,0.14767233,0.71073735,0.8954941,-0.20744526,-0.055600643,0.5559749,652.74725,792.96704,796.99634,778.0586,588.68134,0.0,0.0,0.12713623046875,0.076416015625,0.9825439453125,7.19268798828125,-4.9346923828125,5.271148681640625,1466666.6666666667,99861465.2014652,56487619.047619045,85.01756,1.0,1.0,1.0,1.0,1.0,50.0,,0 days 00:00:00.001000
2023-11-16 11:18:13.529,0.862561,0.5523645,0.80094886,1.261506,1.0441674,0.10805274,-0.03054563,0.5715619,0.25866097,0.21147916,0.5260361,0.6304377,1.0004647,0.070154645,0.14767233,0.71073735,0.8954941,-0.20744526,-0.055600643,0.5559749,670.87915,792.96704,793.36993,778.86444,582.23444,0.0,0.0,0.13299560546875,0.06121826171875,1.01922607421875,4.687957763671875,-5.450592041015625,5.929107666015625,1466666.6666666667,99861465.2014652,56487619.047619045,85.01756,1.0,1.0,1.0,1.0,1.0,50.0,,0 days 00:00:00.022000
2023-11-16 11:18:13.529,0.862561,0.5523645,0.80094886,1.261506,1.0441674,0.10805274,-0.03054563,0.5715619,0.25866097,0.21147916,0.5260361,0.6304377,1.0004647,0.070154645,0.14767233,0.71073735,0.8954941,-0.20744526,-0.055600643,0.5559749,701.0989,791.3553,790.9524,796.1905,619.707,0.0,0.0,0.13299560546875,0.06121826171875,1.01922607421875,4.687957763671875,-5.450592041015625,5.929107666015625,1466666.6666666667,99861465.2014652,56487619.047619045,85.01756,1.0,1.0,1.0,1.0,1.0,50.0,,0 days 00:00:00
2023-11-16 11:18:13.530,0.862561,0.5523645,0.80094886,1.261506,1.0441674,0.10805274,-0.03054563,0.5715619,0.25866097,0.21147916,0.5260361,0.6304377,1.0004647,0.070154645,0.14767233,0.71073735,0.8954941,-0.20744526,-0.055600643,0.5559749,703.1135,790.9524,786.52014,811.0989,672.49084,0.0,0.0,0.13299560546875,0.06121826171875,1.01922607421875,4.687957763671875,-5.450592041015625,5.929107666015625,1466666.6666666667,99861465.2014652,56487619.047619045,85.01756,1.0,1.0,1.0,1.0,1.0,50.0,,0 days 00:00:00.001000
2023-11-16 11:18:13.530,0.862561,0.5523645,0.80094886,1.261506,1.0441674,0.10805274,-0.03054563,0.5715619,0.25866097,0.21147916,0.5260361,0.6304377,1.0004647,0.070154645,0.14767233,0.71073735,0.8954941,-0.20744526,-0.055600643,0.5559749,690.6227,795.78754,796.1905,806.6667,633.4066,0.0,0.0,0.13299560546875,0.06121826171875,1.01922607421875,4.687957763671875,-5.450592041015625,5.929107666015625,1466666.6666666667,99861465.2014652,56487619.047619045,85.01756,1.0,1.0,1.0,1.0,1.0,50.0,,0 days 00:00:00
2023-11-16 11:18:13.530,0.862561,0.5523645,0.80094886,1.261506,1.0441674,0.10805274,-0.03054563,0.5715619,0.25866097,0.21147916,0.5260361,0.6304377,1.0004647,0.070154645,0.14767233,0.71073735,0.8954941,-0.20744526,-0.055600643,0.5559749,680.14655,794.17584,795.78754,791.3553,638.6447,0.0,0.0,0.13299560546875,0.06121826171875,1.01922607421875,4.687957763671875,-5.450592041015625,5.929107666015625,1466666.6666666667,99861465.2014652,56487619.047619045,85.01756,1.0,1.0,1.0,1.0,1.0,50.0,,0 days 00:00:00
2023-11-16 11:18:13.531,0.862561,0.5523645,0.80094886,1.261506,1.0441674,0.10805274,-0.03054563,0.5715619,0.25866097,0.21147916,0.5260361,0.6304377,1.0004647,0.070154645,0.14767233,0.71073735,0.8954941,-0.20744526,-0.055600643,0.5559749,688.20514,792.1612,794.9817,792.5641,697.0696,0.0,0.0,0.13299560546875,0.06121826171875,1.01922607421875,4.687957763671875,-5.450592041015625,5.929107666015625,1466666.6666666667,99861465.2014652,56487619.047619045,85.01756,1.0,1.0,1.0,1.0,1.0,50.0,,0 days 00:00:00.001000
2023-11-16 11:18:13.531,0.862561,0.5523645,0.80094886,1.261506,1.0441674,0.10805274,-0.03054563,0.5715619,0.25866097,0.21147916,0.5260361,0.6304377,1.0004647,0.070154645,0.14767233,0.71073735,0.8954941,-0.20744526,-0.055600643,0.5559749,716.0073,794.57874,796.99634,800.2198,919.0842,0.0,0.0,0.13299560546875,0.06121826171875,1.01922607421875,4.687957763671875,-5.450592041015625,5.929107666015625,1466666.6666666667,99861465.2014652,56487619.047619045,85.01756,1.0,1.0,1.0,1.0,1.0,50.0,,0 days 00:00:00
2023-11-16 11:18:13.531,0.862561,0.5523645,0.80094886,1.261506,1.0441674,0.10805274,-0.03054563,0.5715619,0.25866097,0.21147916,0.5260361,0.6304377,1.0004647,0.070154645,0.14767233,0.71073735,0.8954941,-0.20744526,-0.055600643,0.5559749,702.71063,795.38464,788.5348,796.1905,919.89014,0.0,0.0,0.13299560546875,0.06121826171875,1.01922607421875,4.687957763671875,-5.450592041015625,5.929107666015625,1466666.6666666667,99861465.2014652,56487619.047619045,85.01756,1.0,1.0,1.0,1.0,1.0,50.0,,0 days 00:00:00
2023-11-16 11:18:13.532,0.862561,0.5523645,0.80094886,1.261506,1.0441674,0.10805274,-0.03054563,0.5715619,0.25866097,0.21147916,0.5260361,0.6304377,1.0004647,0.070154645,0.14767233,0.71073735,0.8954941,-0.20744526,-0.055600643,0.5559749,674.10254,790.54944,786.1172,784.90845,628.97437,0.0,0.0,0.13299560546875,0.06121826171875,1.01922607421875,4.687957763671875,-5.450592041015625,5.929107666015625,1466666.6666666667,99861465.2014652,56487619.047619045,85.01756,1.0,1.0,1.0,1.0,1.0,50.0,,0 days 00:00:00.001000
2023-11-16 11:18:13.532,0.862561,0.5523645,0.80094886,1.261506,1.0441674,0.10805274,-0.03054563,0.5715619,0.25866097,0.21147916,0.5260361,0.6304377,1.0004647,0.070154645,0.14767233,0.71073735,0.8954941,-0.20744526,-0.055600643,0.5559749,689.011,791.75824,789.34064,787.72894,670.4762,0.0,0.0,0.13299560546875,0.06121826171875,1.01922607421875,4.687957763671875,-5.450592041015625,5.929107666015625,1466666.6666666667,99861465.2014652,56487619.047619045,85.01756,1.0,1.0,1.0,1.0,1.0,50.0,,0 days 00:00:00
2023-11-16 11:18:13.533,0.862561,0.5523645,0.80094886,1.261506,1.0441674,0.10805274,-0.03054563,0.5715619,0.25866097,0.21147916,0.5260361,0.6304377,1.0004647,0.070154645,0.14767233,0.71073735,0.8954941,-0.20744526,-0.055600643,0.5559749,699.0842,801.8315,796.1905,811.9048,725.6777,0.0,0.0,0.13299560546875,0.06121826171875,1.01922607421875,4.687957763671875,-5.450592041015625,5.929107666015625,1466666.6666666667,99861465.2014652,56487619.047619045,85.01756,1.0,1.0,1.0,1.0,1.0,50.0,,0 days 00:00:00.001000
2023-11-16 11:18:13.533,0.862561,0.5523645,0.80094886,1.261506,1.0441674,0.10805274,-0.03054563,0.5715619,0.25866097,0.21147916,0.5260361,0.6304377,1.0004647,0.070154645,0.14767233,0.71073735,0.8954941,-0.20744526,-0.055600643,0.5559749,706.337,802.6374,799.011,807.47253,674.10254,0.0,0.0,0.13299560546875,0.06121826171875,1.01922607421875,4.687957763671875,-5.450592041015625,5.929107666015625,1466666.6666666667,99861465.2014652,56487619.047619045,85.01756,1.0,1.0,1.0,1.0,1.0,50.0,,0 days 00:00:00
2023-11-16 11:18:13.600,0.862561,0.5523645,0.80094886,1.261506,1.0441674,0.10805274,-0.03054563,0.5715619,0.25866097,0.21147916,0.5260361,0.6304377,1.0004647,0.070154645,0.14767233,0.71073735,0.8954941,-0.20744526,-0.055600643,0.5559749,707.1429,797.8022,794.9817,796.5934,701.9048,0.0,0.0,0.13299560546875,0.06121826171875,1.01922607421875,4.687957763671875,-5.450592041015625,5.929107666015625,1441684.9816849816,99880805.86080584,56507765.56776557,85.09216,1.0,1.0,1.0,1.0,1.0,50.0,,0 days 00:00:00.067000
2023-11-16 11:18:13.601,0.862561,0.5523645,0.80094886,1.261506,1.0441674,0.10805274,-0.03054563,0.5715619,0.25866097,0.21147916,0.5260361,0.6304377,1.0004647,0.070154645,0.14767233,0.71073735,0.8954941,-0.20744526,-0.055600643,0.5559749,711.1722,799.81683,796.5934,817.1429,745.0183,0.0,0.0,0.13299560546875,0.06121826171875,1.01922607421875,4.687957763671875,-5.450592041015625,5.929107666015625,1441684.9816849816,99880805.86080584,56507765.56776557,85.09216,1.0,1.0,1.0,1.0,1.0,50.0,,0 days 00:00:00.001000
2023-11-16 11:18:13.601,0.862561,0.5523645,0.80094886,1.261506,1.0441674,0.10805274,-0.03054563,0.5715619,0.25866097,0.21147916,0.5260361,0.6304377,1.0004647,0.070154645,0.14767233,0.71073735,0.8954941,-0.20744526,-0.055600643,0.5559749,722.8571,803.0403,795.78754,808.2784,708.3516,0.0,0.0,0.13299560546875,0.06121826171875,1.01922607421875,4.687957763671875,-5.450592041015625,5.929107666015625,1441684.9816849816,99880805.86080584,56507765.56776557,85.09216,1.0,1.0,1.0,1.0,1.0,50.0,,0 days 00:00:00
2023-11-16 11:18:13.602,0.862561,0.5523645,0.80094886,1.261506,1.0441674,0.10805274,-0.03054563,0.5715619,0.25866097,0.21147916,0.5260361,0.6304377,1.0004647,0.070154645,0.14767233,0.71073735,0.8954941,-0.20744526,-0.055600643,0.5559749,727.28937,802.23444,792.96704,803.44324,706.7399,0.0,0.0,0.13299560546875,0.06121826171875,1.01922607421875,4.687957763671875,-5.450592041015625,5.929107666015625,1441684.9816849816,99880805.86080584,56507765.56776557,85.09216,1.0,1.0,1.0,1.0,1.0,50.0,,0 days 00:00:00.001000
2023-11-16 11:18:13.602,0.862561,0.5523645,0.80094886,1.261506,1.0441674,0.10805274,-0.03054563,0.5715619,0.25866097,0.21147916,0.5260361,0.6304377,1.0004647,0.070154645,0.14767233,0.71073735,0.8954941,-0.20744526,-0.055600643,0.5559749,716.0073,798.60803,795.38464,823.5897,780.07324,0.0,0.0,0.13299560546875,0.06121826171875,1.01922607421875,4.687957763671875,-5.450592041015625,5.929107666015625,1441684.9816849816,99880805.86080584,56507765.56776557,85.09216,1.0,1.0,1.0,1.0,1.0,50.0,,0 days 00:00:00
2023-11-16 11:18:13.603,0.862561,0.5523645,0.80094886,1.261506,1.0441674,0.10805274,-0.03054563,0.5715619,0.25866097,0.21147916,0.5260361,0.6304377,1.0004647,0.070154645,0.14767233,0.71073735,0.8954941,-0.20744526,-0.055600643,0.5559749,707.9487,802.6374,795.38464,813.5165,990.0,0.0,0.0,0.13299560546875,0.06121826171875,1.01922607421875,4.687957763671875,-5.450592041015625,5.929107666015625,1441684.9816849816,99880805.86080584,56507765.56776557,85.09216,1.0,1.0,1.0,1.0,1.0,50.0,,0 days 00:00:00.001000
2023-11-16 11:18:13.603,0.862561,0.5523645,0.80094886,1.261506,1.0441674,0.10805274,-0.03054563,0.5715619,0.25866097,0.21147916,0.5260361,0.6304377,1.0004647,0.070154645,0.14767233,0.71073735,0.8954941,-0.20744526,-0.055600643,0.5559749,704.3223,803.0403,794.9817,822.7839,1109.6703,0.0,0.0,0.13299560546875,0.06121826171875,1.01922607421875,4.687957763671875,-5.450592041015625,5.929107666015625,1441684.9816849816,99880805.86080584,56507765.56776557,85.09216,1.0,1.0,1.0,1.0,1.0,50.0,,0 days 00:00:00
2023-11-16 11:18:13.604,0.862561,0.5453937,0.72787505,1.2188517,1.0441674,0.0914879,-0.096386135,0.53631604,0.25866097,0.21147916,0.5070314,0.63381284,1.0004647,0.05911735,0.14357947,0.6900933,0.8954941,-0.21009631,-0.09460028,0.60359395,701.50183,795.38464,793.7729,818.3516,861.06226,0.0,0.0,0.13299560546875,0.06121826171875,1.01922607421875,4.687957763671875,-5.450592041015625,5.929107666015625,1441684.9816849816,99880805.86080584,56507765.56776557,85.09216,1.0,1.0,1.0,1.0,1.0,50.0,,0 days 00:00:00.001000
2023-11-16 11:18:13.605,0.862561,0.5453937,0.72787505,1.2188517,1.0441674,0.0914879,-0.096386135,0.53631604,0.25866097,0.21147916,0.5070314,0.63381284,1.0004647,0.05911735,0.14357947,0.6900933,0.8954941,-0.21009631,-0.09460028,0.60359395,692.6374,798.60803,791.75824,792.1612,759.12085,0.0,0.0,0.13299560546875,0.06121826171875,1.01922607421875,4.687957763671875,-5.450592041015625,5.929107666015625,1441684.9816849816,99880805.86080584,56507765.56776557,85.09216,1.0,1.0,1.0,1.0,1.0,50.0,,0 days 00:00:00.001000
2023-11-16 11:18:13.606,0.862561,0.5453937,0.72787505,1.2188517,1.0441674,0.0914879,-0.096386135,0.53631604,0.25866097,0.21147916,0.5070314,0.63381284,1.0004647,0.05911735,0.14357947,0.6900933,0.8954941,-0.21009631,-0.09460028,0.60359395,681.3553,806.26373,796.1905,813.91943,767.5824,0.0,0.0,0.13299560546875,0.06121826171875,1.01922607421875,4.687957763671875,-5.450592041015625,5.929107666015625,1441684.9816849816,99880805.86080584,56507765.56776557,85.09216,1.0,1.0,1.0,1.0,1.0,50.0,,0 days 00:00:00.001000
2023-11-16 11:18:13.606,0.862561,0.5453937,0.72787505,1.2188517,1.0441674,0.0914879,-0.096386135,0.53631604,0.25866097,0.21147916,0.5070314,0.63381284,1.0004647,0.05911735,0.14357947,0.6900933,0.8954941,-0.21009631,-0.09460028,0.60359395,704.3223,807.47253,796.1905,804.65204,745.42126,0.0,0.0,0.13299560546875,0.06121826171875,1.01922607421875,4.687957763671875,-5.450592041015625,5.929107666015625,1441684.9816849816,99880805.86080584,56507765.56776557,85.09216,1.0,1.0,1.0,1.0,1.0,50.0,,0 days 00:00:00
2023-11-16 11:18:13.606,0.862561,0.5453937,0.72787505,1.2188517,1.0441674,0.0914879,-0.096386135,0.53631604,0.25866097,0.21147916,0.5070314,0.63381284,1.0004647,0.05911735,0.14357947,0.6900933,0.8954941,-0.21009631,-0.09460028,0.60359395,718.8278,801.02563,797.8022,803.44324,695.05493,0.0,0.0,0.13299560546875,0.06121826171875,1.01922607421875,4.687957763671875,-5.450592041015625,5.929107666015625,1441684.9816849816,99880805.86080584,56507765.56776557,85.09216,1.0,1.0,1.0,1.0,1.0,50.0,,0 days 00:00:00
2023-11-16 11:18:13.638,0.862561,0.5453937,0.72787505,1.2188517,1.0441674,0.0914879,-0.096386135,0.53631604,0.25866097,0.21147916,0.5070314,0.63381284,1.0004647,0.05911735,0.14357947,0.6900933,0.8954941,-0.21009631,-0.09460028,0.60359395,693.8461,798.60803,799.81683,817.9487,672.0879,0.0,0.0,0.10797119140625,0.05889892578125,1.01092529296875,1.42059326171875,-6.998291015625,2.4822998046875,1441684.9816849816,99880805.86080584,56507765.56776557,85.09216,1.0,1.0,1.0,1.0,1.0,50.0,,0 days 00:00:00.032000
2023-11-16 11:18:13.638,0.862561,0.5453937,0.72787505,1.2188517,1.0441674,0.0914879,-0.096386135,0.53631604,0.25866097,0.21147916,0.5070314,0.63381284,1.0004647,0.05911735,0.14357947,0.6900933,0.8954941,-0.21009631,-0.09460028,0.60359395,698.2784,801.8315,787.326,798.20514,735.7509,0.0,0.0,0.10797119140625,0.05889892578125,1.01092529296875,1.42059326171875,-6.998291015625,2.4822998046875,1441684.9816849816,99880805.86080584,56507765.56776557,85.09216,1.0,1.0,1.0,1.0,1.0,50.0,,0 days 00:00:00
2023-11-16 11:18:13.639,0.862561,0.5453937,0.72787505,1.2188517,1.0441674,0.0914879,-0.096386135,0.53631604,0.25866097,0.21147916,0.5070314,0.63381284,1.0004647,0.05911735,0.14357947,0.6900933,0.8954941,-0.21009631,-0.09460028,0.60359395,711.5751,808.2784,782.8938,796.1905,761.9414,0.0,0.0,0.10797119140625,0.05889892578125,1.01092529296875,1.42059326171875,-6.998291015625,2.4822998046875,1441684.9816849816,99880805.86080584,56507765.56776557,85.09216,1.0,1.0,1.0,1.0,1.0,50.0,,0 days 00:00:00.001000
2023-11-16 11:18:13.640,0.862561,0.5453937,0.72787505,1.2188517,1.0441674,0.0914879,-0.096386135,0.53631604,0.25866097,0.21147916,0.5070314,0.63381284,1.0004647,0.05911735,0.14357947,0.6900933,0.8954941,-0.21009631,-0.09460028,0.60359395,697.47253,807.0696,786.9231,805.8608,731.7216,0.0,0.0,0.10797119140625,0.05889892578125,1.01092529296875,1.42059326171875,-6.998291015625,2.4822998046875,1441684.9816849816,99880805.86080584,56507765.56776557,85.09216,1.0,1.0,1.0,1.0,1.0,50.0,,0 days 00:00:00.001000
2023-11-16 11:18:13.640,0.862561,0.5453937,0.72787505,1.2188517,1.0441674,0.0914879,-0.096386135,0.53631604,0.25866097,0.21147916,0.5070314,0.63381284,1.0004647,0.05911735,0.14357947,0.6900933,0.8954941,-0.21009631,-0.09460028,0.60359395,699.0842,802.6374,790.9524,798.60803,823.5897,0.0,0.0,0.10797119140625,0.05889892578125,1.01092529296875,1.42059326171875,-6.998291015625,2.4822998046875,1441684.9816849816,99880805.86080584,56507765.56776557,85.09216,1.0,1.0,1.0,1.0,1.0,50.0,,0 days 00:00:00
2023-11-16 11:18:13.641,0.862561,0.5453937,0.72787505,1.2188517,1.0441674,0.0914879,-0.096386135,0.53631604,0.25866097,0.21147916,0.5070314,0.63381284,1.0004647,0.05911735,0.14357947,0.6900933,0.8954941,-0.21009631,-0.09460028,0.60359395,696.26373,801.8315,788.5348,801.02563,1004.5055,0.0,0.0,0.10797119140625,0.05889892578125,1.01092529296875,1.42059326171875,-6.998291015625,2.4822998046875,1441684.9816849816,99880805.86080584,56507765.56776557,85.09216,1.0,1.0,1.0,1.0,1.0,50.0,,0 days 00:00:00.001000
2023-11-16 11:18:13.641,0.862561,0.5453937,0.72787505,1.2188517,1.0441674,0.0914879,-0.096386135,0.53631604,0.25866097,0.21147916,0.5070314,0.63381284,1.0004647,0.05911735,0.14357947,0.6900933,0.8954941,-0.21009631,-0.09460028,0.60359395,704.3223,801.8315,788.1319,799.011,936.0073,0.0,0.0,0.10797119140625,0.05889892578125,1.01092529296875,1.42059326171875,-6.998291015625,2.4822998046875,1441684.9816849816,99880805.86080584,56507765.56776557,85.09216,1.0,1.0,1.0,1.0,1.0,50.0,,0 days 00:00:00
2023-11-16 11:18:13.642,0.862561,0.5453937,0.72787505,1.2188517,1.0441674,0.0914879,-0.096386135,0.53631604,0.25866097,0.21147916,0.5070314,0.63381284,1.0004647,0.05911735,0.14357947,0.6900933,0.8954941,-0.21009631,-0.09460028,0.60359395,717.2161,801.02563,788.93774,796.99634,838.49817,0.0,0.0,0.10797119140625,0.05889892578125,1.01092529296875,1.42059326171875,-6.998291015625,2.4822998046875,1441684.9816849816,99880805.86080584,56507765.56776557,85.09216,1.0,1.0,1.0,1.0,1.0,50.0,,0 days 00:00:00.001000
2023-11-16 11:18:13.642,0.862561,0.5453937,0.72787505,1.2188517,1.0441674,0.0914879,-0.096386135,0.53631604,0.25866097,0.21147916,0.5070314,0.63381284,1.0004647,0.05911735,0.14357947,0.6900933,0.8954941,-0.21009631,-0.09460028,0.60359395,712.381,796.99634,779.2674,793.7729,917.8755,0.0,0.0,0.10797119140625,0.05889892578125,1.01092529296875,1.42059326171875,-6.998291015625,2.4822998046875,1441684.9816849816,99880805.86080584,56507765.56776557,85.09216,1.0,1.0,1.0,1.0,1.0,50.0,,0 days 00:00:00
2023-11-16 11:18:13.643,0.862561,0.5453937,0.72787505,1.2188517,1.0441674,0.0914879,-0.096386135,0.53631604,0.25866097,0.21147916,0.5070314,0.63381284,1.0004647,0.05911735,0.14357947,0.6900933,0.8954941,-0.21009631,-0.09460028,0.60359395,701.9048,796.1905,776.04395,805.05493,1150.3663,0.0,0.0,0.10797119140625,0.05889892578125,1.01092529296875,1.42059326171875,-6.998291015625,2.4822998046875,1441684.9816849816,99880805.86080584,56507765.56776557,85.09216,1.0,1.0,1.0,1.0,1.0,50.0,,0 days 00:00:00.001000
2023-11-16 11:18:13.643,0.862561,0.5453937,0.72787505,1.2188517,1.0441674,0.0914879,-0.096386135,0.53631604,0.25866097,0.21147916,0.5070314,0.63381284,1.0004647,0.05911735,0.14357947,0.6900933,0.8954941,-0.21009631,-0.09460028,0.60359395,691.4286,791.3553,786.52014,821.5751,1066.1538,0.0,0.0,0.10797119140625,0.05889892578125,1.01092529296875,1.42059326171875,-6.998291015625,2.4822998046875,1441684.9816849816,99880805.86080584,56507765.56776557,85.09216,1.0,1.0,1.0,1.0,1.0,50.0,,0 days 00:00:00
2023-11-16 11:18:13.644,0.862561,0.5453937,0.72787505,1.2188517,1.0441674,0.0914879,-0.096386135,0.53631604,0.25866097,0.21147916,0.5070314,0.63381284,1.0004647,0.05911735,0.14357947,0.6900933,0.8954941,-0.21009631,-0.09460028,0.60359395,697.0696,790.9524,798.60803,810.696,776.8498,0.0,0.0,0.10797119140625,0.05889892578125,1.01092529296875,1.42059326171875,-6.998291015625,2.4822998046875,1441684.9816849816,99880805.86080584,56507765.56776557,85.09216,1.0,1.0,1.0,1.0,1.0,50.0,,0 days 00:00:00.001000
2023-11-16 11:18:13.715,0.862561,0.5453937,0.72787505,1.2188517,1.0441674,0.0914879,-0.096386135,0.53631604,0.25866097,0.21147916,0.5070314,0.63381284,1.0004647,0.05911735,0.14357947,0.6900933,0.8954941,-0.21009631,-0.09460028,0.60359395,709.9634,801.4286,796.1905,805.05493,803.0403,0.0,0.0,0.13580322265625,0.02752685546875,1.00067138671875,-3.42437744140625,-6.631927490234375,-3.2000732421875,1444908.424908425,99919487.17948718,56537582.417582415,85.16239,1.0,1.0,1.0,1.0,1.0,50.0,,0 days 00:00:00.071000
2023-11-16 11:18:13.716,0.862561,0.5453937,0.72787505,1.2188517,1.0441674,0.0914879,-0.096386135,0.53631604,0.25866097,0.21147916,0.5070314,0.63381284,1.0004647,0.05911735,0.14357947,0.6900933,0.8954941,-0.21009631,-0.09460028,0.60359395,707.9487,808.68134,786.1172,795.38464,860.65936,0.0,0.0,0.13580322265625,0.02752685546875,1.00067138671875,-3.42437744140625,-6.631927490234375,-3.2000732421875,1444908.424908425,99919487.17948718,56537582.417582415,85.16239,1.0,1.0,1.0,1.0,1.0,50.0,,0 days 00:00:00.001000
2023-11-16 11:18:13.716,0.862561,0.5453937,0.72787505,1.2188517,1.0441674,0.0914879,-0.096386135,0.53631604,0.25866097,0.21147916,0.5070314,0.63381284,1.0004647,0.05911735,0.14357947,0.6900933,0.8954941,-0.21009631,-0.09460028,0.60359395,711.5751,809.89014,786.1172,794.9817,821.978,0.0,0.0,0.13580322265625,0.02752685546875,1.00067138671875,-3.42437744140625,-6.631927490234375,-3.2000732421875,1444908.424908425,99919487.17948718,56537582.417582415,85.16239,1.0,1.0,1.0,1.0,1.0,50.0,,0 days 00:00:00
2023-11-16 11:18:13.716,0.862561,0.5453937,0.72787505,1.2188517,1.0441674,0.0914879,-0.096386135,0.53631604,0.25866097,0.21147916,0.5070314,0.63381284,1.0004647,0.05911735,0.14357947,0.6900933,0.8954941,-0.21009631,-0.09460028,0.60359395,719.6337,805.05493,787.326,799.81683,815.12823,0.0,0.0,0.13580322265625,0.02752685546875,1.00067138671875,-3.42437744140625,-6.631927490234375,-3.2000732421875,1444908.424908425,99919487.17948718,56537582.417582415,85.16239,1.0,1.0,1.0,1.0,1.0,50.0,,0 days 00:00:00
2023-11-16 11:18:13.717,0.862561,0.5453937,0.72787505,1.2188517,1.0441674,0.0914879,-0.096386135,0.53631604,0.25866097,0.21147916,0.5070314,0.63381284,1.0004647,0.05911735,0.14357947,0.6900933,0.8954941,-0.21009631,-0.09460028,0.60359395,738.1685,805.4579,788.93774,799.81683,884.0293,0.0,0.0,0.13580322265625,0.02752685546875,1.00067138671875,-3.42437744140625,-6.631927490234375,-3.2000732421875,1444908.424908425,99919487.17948718,56537582.417582415,85.16239,1.0,1.0,1.0,1.0,1.0,50.0,,0 days 00:00:00.001000
2023-11-16 11:18:13.717,0.862561,0.5453937,0.72787505,1.2188517,1.0441674,0.0914879,-0.096386135,0.53631604,0.25866097,0.21147916,0.5070314,0.63381284,1.0004647,0.05911735,0.14357947,0.6900933,0.8954941,-0.21009631,-0.09460028,0.60359395,722.8571,806.26373,790.54944,799.81683,919.4872,0.0,0.0,0.13580322265625,0.02752685546875,1.00067138671875,-3.42437744140625,-6.631927490234375,-3.2000732421875,1444908.424908425,99919487.17948718,56537582.417582415,85.16239,1.0,1.0,1.0,1.0,1.0,50.0,,0 days 00:00:00
2023-11-16 11:18:13.718,0.862561,0.5453937,0.72787505,1.2188517,1.0441674,0.0914879,-0.096386135,0.53631604,0.25866097,0.21147916,0.5070314,0.63381284,1.0004647,0.05911735,0.14357947,0.6900933,0.8954941,-0.21009631,-0.09460028,0.60359395,680.54944,801.8315,784.10254,795.38464,939.2308,0.0,0.0,0.13580322265625,0.02752685546875,1.00067138671875,-3.42437744140625,-6.631927490234375,-3.2000732421875,1444908.424908425,99919487.17948718,56537582.417582415,85.16239,1.0,1.0,1.0,1.0,1.0,50.0,,0 days 00:00:00.001000
2023-11-16 11:18:13.718,0.862561,0.5453937,0.72787505,1.2188517,1.0441674,0.0914879,-0.096386135,0.53631604,0.25866097,0.21147916,0.5070314,0.63381284,1.0004647,0.05911735,0.14357947,0.6900933,0.8954941,-0.21009631,-0.09460028,0.60359395,685.78754,801.8315,787.326,796.1905,906.5934,0.0,0.0,0.13580322265625,0.02752685546875,1.00067138671875,-3.42437744140625,-6.631927490234375,-3.2000732421875,1444908.424908425,99919487.17948718,56537582.417582415,85.16239,1.0,1.0,1.0,1.0,1.0,50.0,,0 days 00:00:00
2023-11-16 11:18:13.719,0.862561,0.5453937,0.72787505,1.2188517,1.0441674,0.0914879,-0.096386135,0.53631604,0.25866097,0.21147916,0.5070314,0.63381284,1.0004647,0.05911735,0.14357947,0.6900933,0.8954941,-0.21009631,-0.09460028,0.60359395,719.6337,802.6374,795.38464,820.3663,1023.0403,0.0,0.0,0.13580322265625,0.02752685546875,1.00067138671875,-3.42437744140625,-6.631927490234375,-3.2000732421875,1444908.424908425,99919487.17948718,56537582.417582415,85.16239,1.0,1.0,1.0,1.0,1.0,50.0,,0 days 00:00:00.001000
