TimeStamp,Delta_TP9,Delta_AF7,Delta_AF8,Delta_TP10,Theta_TP9,Theta_AF7,Theta_AF8,Theta_TP10,Alpha_TP9,Alpha_AF7,Alpha_AF8,Alpha_TP10,Beta_TP9,Beta_AF7,Beta_AF8,Beta_TP10,Gamma_TP9,Gamma_AF7,Gamma_AF8,Gamma_TP10,RAW_TP9,RAW_AF7,RAW_AF8,RAW_TP10,AUX_RIGHT,Mellow,Concentration,Accelerometer_X,Accelerometer_Y,Accelerometer_Z,Gyro_X,Gyro_Y,Gyro_Z,PPG_Ambient,PPG_IR,PPG_Red,Heart_Rate,HeadBandOn,HSI_TP9,HSI_AF7,HSI_AF8,HSI_TP10,Battery,Elements,TimeDifference
2023-11-09 13:22:38.930,0.41215548,-0.13836941,0.2014873,0.4372975,0.056653086,-0.35910606,-0.08936188,0.062906235,0.503707,-0.08565582,0.06825152,0.8248803,0.4757007,-0.19127521,-0.038807098,0.49744517,0.22538564,-0.52500457,-0.39268538,0.2585886,795.78754,803.8461,806.26373,798.20514,788.1319,9.999999,0.0,0.10760498046875,0.08782958984375,0.996337890625,2.444915771484375,-5.33843994140625,-1.15142822265625,460146.5201465201,113545787.54578754,69583663.003663,79.86944,1.0,1.0,1.0,1.0,1.0,25.0,,0 days 00:00:00.001000
2023-11-09 13:22:38.930,0.41215548,-0.13836941,0.2014873,0.4372975,0.056653086,-0.35910606,-0.08936188,0.062906235,0.503707,-0.08565582,0.06825152,0.8248803,0.4757007,-0.19127521,-0.038807098,0.49744517,0.22538564,-0.52500457,-0.39268538,0.2585886,784.5055,809.0842,807.47253,797.3993,778.0586,9.999999,0.0,0.10760498046875,0.08782958984375,0.996337890625,2.444915771484375,-5.33843994140625,-1.15142822265625,460146.5201465201,113545787.54578754,69583663.003663,79.86944,1.0,1.0,1.0,1.0,1.0,25.0,,0 days 00:00:00
2023-11-09 13:22:38.930,0.41215548,-0.13836941,0.2014873,0.4372975,0.056653086,-0.35910606,-0.08936188,0.062906235,0.503707,-0.08565582,0.06825152,0.8248803,0.4757007,-0.19127521,-0.038807098,0.49744517,0.22538564,-0.52500457,-0.39268538,0.2585886,776.04395,808.2784,811.50183,809.89014,960.989,9.999999,0.0,0.10760498046875,0.08782958984375,0.996337890625,2.444915771484375,-5.33843994140625,-1.15142822265625,460146.5201465201,113545787.54578754,69583663.003663,79.86944,1.0,1.0,1.0,1.0,1.0,25.0,,0 days 00:00:00
2023-11-09 13:22:38.931,0.41183028,-0.09843286,0.17349525,0.42976227,0.049707342,-0.35890538,-0.10672729,0.08113066,0.54178977,-0.05968228,0.06825152,0.8340486,0.4833395,-0.15551904,-0.05149795,0.49958897,0.23972999,-0.52248704,-0.39430296,0.28621474,778.0586,802.6374,812.71063,814.7253,1067.7656,11.999999,0.0,0.10760498046875,0.08782958984375,0.996337890625,2.444915771484375,-5.33843994140625,-1.15142822265625,460146.5201465201,113545787.54578754,69583663.003663,79.86944,1.0,1.0,1.0,1.0,1.0,25.0,,0 days 00:00:00.001000
2023-11-09 13:22:38.933,0.41183028,-0.09843286,0.17349525,0.42976227,0.049707342,-0.35890538,-0.10672729,0.08113066,0.54178977,-0.05968228,0.06825152,0.8340486,0.4833395,-0.15551904,-0.05149795,0.49958897,0.23972999,-0.52248704,-0.39430296,0.28621474,781.685,803.44324,811.9048,808.2784,831.2454,11.999999,0.0,0.10760498046875,0.08782958984375,0.996337890625,2.444915771484375,-5.33843994140625,-1.15142822265625,460146.5201465201,113545787.54578754,69583663.003663,79.86944,1.0,1.0,1.0,1.0,1.0,25.0,,0 days 00:00:00.002000
2023-11-09 13:22:38.933,0.41183028,-0.09843286,0.17349525,0.42976227,0.049707342,-0.35890538,-0.10672729,0.08113066,0.54178977,-0.05968228,0.06825152,0.8340486,0.4833395,-0.15551904,-0.05149795,0.49958897,0.23972999,-0.52248704,-0.39430296,0.28621474,783.69965,803.8461,811.0989,805.8608,712.7839,11.999999,0.0,0.10760498046875,0.08782958984375,0.996337890625,2.444915771484375,-5.33843994140625,-1.15142822265625,460146.5201465201,113545787.54578754,69583663.003663,79.86944,1.0,1.0,1.0,1.0,1.0,25.0,,0 days 00:00:00
2023-11-09 13:22:38.933,0.41183028,-0.09843286,0.17349525,0.42976227,0.049707342,-0.35890538,-0.10672729,0.08113066,0.54178977,-0.05968228,0.06825152,0.8340486,0.4833395,-0.15551904,-0.05149795,0.49958897,0.23972999,-0.52248704,-0.39430296,0.28621474,790.9524,807.47253,813.1135,811.50183,896.9231,11.999999,0.0,0.10760498046875,0.08782958984375,0.996337890625,2.444915771484375,-5.33843994140625,-1.15142822265625,460146.5201465201,113545787.54578754,69583663.003663,79.86944,1.0,1.0,1.0,1.0,1.0,25.0,,0 days 00:00:00
2023-11-09 13:22:38.934,0.41183028,-0.09843286,0.17349525,0.42976227,0.049707342,-0.35890538,-0.10672729,0.08113066,0.54178977,-0.05968228,0.06825152,0.8340486,0.4833395,-0.15551904,-0.05149795,0.49958897,0.23972999,-0.52248704,-0.39430296,0.28621474,798.20514,811.0989,814.7253,816.7399,870.7326,11.999999,0.0,0.10760498046875,0.08782958984375,0.996337890625,2.444915771484375,-5.33843994140625,-1.15142822265625,460146.5201465201,113545787.54578754,69583663.003663,79.86944,1.0,1.0,1.0,1.0,1.0,25.0,,0 days 00:00:00.001000
2023-11-09 13:22:38.934,0.41183028,-0.09843286,0.17349525,0.42976227,0.049707342,-0.35890538,-0.10672729,0.08113066,0.54178977,-0.05968228,0.06825152,0.8340486,0.4833395,-0.15551904,-0.05149795,0.49958897,0.23972999,-0.52248704,-0.39430296,0.28621474,792.1612,810.293,817.1429,807.8755,661.6117,11.999999,0.0,0.10760498046875,0.08782958984375,0.996337890625,2.444915771484375,-5.33843994140625,-1.15142822265625,460146.5201465201,113545787.54578754,69583663.003663,79.86944,1.0,1.0,1.0,1.0,1.0,25.0,,0 days 00:00:00
2023-11-09 13:22:38.934,0.41183028,-0.09843286,0.17349525,0.42976227,0.049707342,-0.35890538,-0.10672729,0.08113066,0.54178977,-0.05968228,0.06825152,0.8340486,0.4833395,-0.15551904,-0.05149795,0.49958897,0.23972999,-0.52248704,-0.39430296,0.28621474,799.011,811.50183,815.12823,804.2491,739.7802,11.999999,0.0,0.10760498046875,0.08782958984375,0.996337890625,2.444915771484375,-5.33843994140625,-1.15142822265625,460146.5201465201,113545787.54578754,69583663.003663,79.86944,1.0,1.0,1.0,1.0,1.0,25.0,,0 days 00:00:00
2023-11-09 13:22:38.973,0.41183028,-0.09843286,0.17349525,0.42976227,0.049707342,-0.35890538,-0.10672729,0.08113066,0.54178977,-0.05968228,0.06825152,0.8340486,0.4833395,-0.15551904,-0.05149795,0.49958897,0.23972999,-0.52248704,-0.39430296,0.28621474,809.89014,812.71063,812.71063,806.6667,778.86444,11.999999,0.0,0.10760498046875,0.08782958984375,0.996337890625,2.444915771484375,-5.33843994140625,-1.15142822265625,460146.5201465201,113692454.2124542,69592527.47252747,79.86944,1.0,1.0,1.0,1.0,1.0,25.0,,0 days 00:00:00.039000
2023-11-09 13:22:38.974,0.41183028,-0.09843286,0.17349525,0.42976227,0.049707342,-0.35890538,-0.10672729,0.08113066,0.54178977,-0.05968228,0.06825152,0.8340486,0.4833395,-0.15551904,-0.05149795,0.49958897,0.23972999,-0.52248704,-0.39430296,0.28621474,799.011,812.71063,815.5311,815.12823,720.4396,11.999999,0.0,0.10760498046875,0.08782958984375,0.996337890625,2.444915771484375,-5.33843994140625,-1.15142822265625,460146.5201465201,113692454.2124542,69592527.47252747,79.86944,1.0,1.0,1.0,1.0,1.0,25.0,,0 days 00:00:00.001000
2023-11-09 13:22:38.974,0.41183028,-0.09843286,0.17349525,0.42976227,0.049707342,-0.35890538,-0.10672729,0.08113066,0.54178977,-0.05968228,0.06825152,0.8340486,0.4833395,-0.15551904,-0.05149795,0.49958897,0.23972999,-0.52248704,-0.39430296,0.28621474,790.14655,814.7253,819.9634,820.3663,705.12823,11.999999,0.0,0.10760498046875,0.08782958984375,0.996337890625,2.444915771484375,-5.33843994140625,-1.15142822265625,460146.5201465201,113692454.2124542,69592527.47252747,79.86944,1.0,1.0,1.0,1.0,1.0,25.0,,0 days 00:00:00
2023-11-09 13:22:38.974,0.41183028,-0.09843286,0.17349525,0.42976227,0.049707342,-0.35890538,-0.10672729,0.08113066,0.54178977,-0.05968228,0.06825152,0.8340486,0.4833395,-0.15551904,-0.05149795,0.49958897,0.23972999,-0.52248704,-0.39430296,0.28621474,785.7143,811.0989,817.9487,810.293,792.1612,11.999999,0.0,0.10760498046875,0.08782958984375,0.996337890625,2.444915771484375,-5.33843994140625,-1.15142822265625,460146.5201465201,113692454.2124542,69592527.47252747,79.86944,1.0,1.0,1.0,1.0,1.0,25.0,,0 days 00:00:00
2023-11-09 13:22:38.975,0.41183028,-0.09843286,0.17349525,0.42976227,0.049707342,-0.35890538,-0.10672729,0.08113066,0.54178977,-0.05968228,0.06825152,0.8340486,0.4833395,-0.15551904,-0.05149795,0.49958897,0.23972999,-0.52248704,-0.39430296,0.28621474,782.8938,807.0696,813.1135,810.696,784.10254,11.999999,0.0,0.10760498046875,0.08782958984375,0.996337890625,2.444915771484375,-5.33843994140625,-1.15142822265625,460146.5201465201,113692454.2124542,69592527.47252747,79.86944,1.0,1.0,1.0,1.0,1.0,25.0,,0 days 00:00:00.001000
2023-11-09 13:22:38.975,0.41183028,-0.09843286,0.17349525,0.42976227,0.049707342,-0.35890538,-0.10672729,0.08113066,0.54178977,-0.05968228,0.06825152,0.8340486,0.4833395,-0.15551904,-0.05149795,0.49958897,0.23972999,-0.52248704,-0.39430296,0.28621474,783.2967,809.4872,815.5311,819.9634,747.8388,11.999999,0.0,0.10760498046875,0.08782958984375,0.996337890625,2.444915771484375,-5.33843994140625,-1.15142822265625,460146.5201465201,113692454.2124542,69592527.47252747,79.86944,1.0,1.0,1.0,1.0,1.0,25.0,,0 days 00:00:00
2023-11-09 13:22:38.976,0.41183028,-0.09843286,0.17349525,0.42976227,0.049707342,-0.35890538,-0.10672729,0.08113066,0.54178977,-0.05968228,0.06825152,0.8340486,0.4833395,-0.15551904,-0.05149795,0.49958897,0.23972999,-0.52248704,-0.39430296,0.28621474,783.2967,807.8755,813.1135,812.71063,797.3993,11.999999,0.0,0.10760498046875,0.08782958984375,0.996337890625,2.444915771484375,-5.33843994140625,-1.15142822265625,460146.5201465201,113692454.2124542,69592527.47252747,79.86944,1.0,1.0,1.0,1.0,1.0,25.0,,0 days 00:00:00.001000
2023-11-09 13:22:38.976,0.41183028,-0.09843286,0.17349525,0.42976227,0.049707342,-0.35890538,-0.10672729,0.08113066,0.54178977,-0.05968228,0.06825152,0.8340486,0.4833395,-0.15551904,-0.05149795,0.49958897,0.23972999,-0.52248704,-0.39430296,0.28621474,792.5641,809.0842,807.8755,808.68134,887.6557,11.999999,0.0,0.10760498046875,0.08782958984375,0.996337890625,2.444915771484375,-5.33843994140625,-1.15142822265625,460146.5201465201,113692454.2124542,69592527.47252747,79.86944,1.0,1.0,1.0,1.0,1.0,25.0,,0 days 00:00:00
2023-11-09 13:22:38.977,0.41183028,-0.09843286,0.17349525,0.42976227,0.049707342,-0.35890538,-0.10672729,0.08113066,0.54178977,-0.05968228,0.06825152,0.8340486,0.4833395,-0.15551904,-0.05149795,0.49958897,0.23972999,-0.52248704,-0.39430296,0.28621474,796.1905,810.696,805.05493,817.1429,1031.0989,11.999999,0.0,0.10760498046875,0.08782958984375,0.996337890625,2.444915771484375,-5.33843994140625,-1.15142822265625,460146.5201465201,113692454.2124542,69592527.47252747,79.86944,1.0,1.0,1.0,1.0,1.0,25.0,,0 days 00:00:00.001000
2023-11-09 13:22:38.977,0.41183028,-0.09843286,0.17349525,0.42976227,0.049707342,-0.35890538,-0.10672729,0.08113066,0.54178977,-0.05968228,0.06825152,0.8340486,0.4833395,-0.15551904,-0.05149795,0.49958897,0.23972999,-0.52248704,-0.39430296,0.28621474,787.326,809.0842,807.8755,814.7253,855.82416,11.999999,0.0,0.10760498046875,0.08782958984375,0.996337890625,2.444915771484375,-5.33843994140625,-1.15142822265625,460146.5201465201,113692454.2124542,69592527.47252747,79.86944,1.0,1.0,1.0,1.0,1.0,25.0,,0 days 00:00:00
2023-11-09 13:22:38.977,0.41183028,-0.09843286,0.17349525,0.42976227,0.049707342,-0.35890538,-0.10672729,0.08113066,0.54178977,-0.05968228,0.06825152,0.8340486,0.4833395,-0.15551904,-0.05149795,0.49958897,0.23972999,-0.52248704,-0.39430296,0.28621474,792.96704,811.0989,808.2784,812.3077,752.27106,11.999999,0.0,0.10760498046875,0.08782958984375,0.996337890625,2.444915771484375,-5.33843994140625,-1.15142822265625,460146.5201465201,113692454.2124542,69592527.47252747,79.86944,1.0,1.0,1.0,1.0,1.0,25.0,,0 days 00:00:00
2023-11-09 13:22:38.978,0.41183028,-0.09843286,0.17349525,0.42976227,0.049707342,-0.35890538,-0.10672729,0.08113066,0.54178977,-0.05968228,0.06825152,0.8340486,0.4833395,-0.15551904,-0.05149795,0.49958897,0.23972999,-0.52248704,-0.39430296,0.28621474,799.011,809.0842,800.6227,819.5604,763.95605,11.999999,0.0,0.10760498046875,0.08782958984375,0.996337890625,2.444915771484375,-5.33843994140625,-1.15142822265625,460146.5201465201,113692454.2124542,69592527.47252747,79.86944,1.0,1.0,1.0,1.0,1.0,25.0,,0 days 00:00:00.001000
2023-11-09 13:22:39.013,0.41183028,-0.09843286,0.17349525,0.42976227,0.049707342,-0.35890538,-0.10672729,0.08113066,0.54178977,-0.05968228,0.06825152,0.8340486,0.4833395,-0.15551904,-0.05149795,0.49958897,0.23972999,-0.52248704,-0.39430296,0.28621474,794.17584,807.8755,803.8461,820.7692,729.707,11.999999,0.0,0.1151123046875,0.08404541015625,1.00457763671875,3.09539794921875,-5.263671875,-0.710296630859375,460146.5201465201,113692454.2124542,69592527.47252747,79.86944,1.0,1.0,1.0,1.0,1.0,25.0,,0 days 00:00:00.035000
2023-11-09 13:22:39.014,0.41183028,-0.09843286,0.17349525,0.42976227,0.049707342,-0.35890538,-0.10672729,0.08113066,0.54178977,-0.05968228,0.06825152,0.8340486,0.4833395,-0.15551904,-0.05149795,0.49958897,0.23972999,-0.52248704,-0.39430296,0.28621474,793.36993,807.8755,806.26373,808.68134,758.315,11.999999,0.0,0.1151123046875,0.08404541015625,1.00457763671875,3.09539794921875,-5.263671875,-0.710296630859375,460146.5201465201,113692454.2124542,69592527.47252747,79.86944,1.0,1.0,1.0,1.0,1.0,25.0,,0 days 00:00:00.001000
2023-11-09 13:22:39.014,0.41183028,-0.09843286,0.17349525,0.42976227,0.049707342,-0.35890538,-0.10672729,0.08113066,0.54178977,-0.05968228,0.06825152,0.8340486,0.4833395,-0.15551904,-0.05149795,0.49958897,0.23972999,-0.52248704,-0.39430296,0.28621474,795.38464,808.2784,805.05493,805.4579,709.15753,11.999999,0.0,0.1151123046875,0.08404541015625,1.00457763671875,3.09539794921875,-5.263671875,-0.710296630859375,460146.5201465201,113692454.2124542,69592527.47252747,79.86944,1.0,1.0,1.0,1.0,1.0,25.0,,0 days 00:00:00
2023-11-09 13:22:39.015,0.41183028,-0.09843286,0.17349525,0.42976227,0.049707342,-0.35890538,-0.10672729,0.08113066,0.54178977,-0.05968228,0.06825152,0.8340486,0.4833395,-0.15551904,-0.05149795,0.49958897,0.23972999,-0.52248704,-0.39430296,0.28621474,804.2491,807.8755,805.8608,810.293,777.6557,11.999999,0.0,0.1151123046875,0.08404541015625,1.00457763671875,3.09539794921875,-5.263671875,-0.710296630859375,460146.5201465201,113692454.2124542,69592527.47252747,79.86944,1.0,1.0,1.0,1.0,1.0,25.0,,0 days 00:00:00.001000
2023-11-09 13:22:39.015,0.41183028,-0.09843286,0.17349525,0.42976227,0.049707342,-0.35890538,-0.10672729,0.08113066,0.54178977,-0.05968228,0.06825152,0.8340486,0.4833395,-0.15551904,-0.05149795,0.49958897,0.23972999,-0.52248704,-0.39430296,0.28621474,809.89014,811.0989,806.6667,809.0842,778.46155,11.999999,0.0,0.1151123046875,0.08404541015625,1.00457763671875,3.09539794921875,-5.263671875,-0.710296630859375,460146.5201465201,113692454.2124542,69592527.47252747,79.86944,1.0,1.0,1.0,1.0,1.0,25.0,,0 days 00:00:00
2023-11-09 13:22:39.016,0.41183028,-0.09843286,0.17349525,0.42976227,0.049707342,-0.35890538,-0.10672729,0.08113066,0.54178977,-0.05968228,0.06825152,0.8340486,0.4833395,-0.15551904,-0.05149795,0.49958897,0.23972999,-0.52248704,-0.39430296,0.28621474,803.0403,813.1135,808.68134,796.1905,712.381,11.999999,0.0,0.1151123046875,0.08404541015625,1.00457763671875,3.09539794921875,-5.263671875,-0.710296630859375,460146.5201465201,113692454.2124542,69592527.47252747,79.86944,1.0,1.0,1.0,1.0,1.0,25.0,,0 days 00:00:00.001000
2023-11-09 13:22:39.016,0.41183028,-0.09843286,0.17349525,0.42976227,0.049707342,-0.35890538,-0.10672729,0.08113066,0.54178977,-0.05968228,0.06825152,0.8340486,0.4833395,-0.15551904,-0.05149795,0.49958897,0.23972999,-0.52248704,-0.39430296,0.28621474,791.75824,807.8755,809.89014,790.9524,721.6484,11.999999,0.0,0.1151123046875,0.08404541015625,1.00457763671875,3.09539794921875,-5.263671875,-0.710296630859375,460146.5201465201,113692454.2124542,69592527.47252747,79.86944,1.0,1.0,1.0,1.0,1.0,25.0,,0 days 00:00:00
2023-11-09 13:22:39.017,0.411843,-0.058273945,0.16524118,0.42945445,0.049557865,-0.3598593,-0.13301335,0.09055386,0.6134799,-0.048063684,0.04717988,0.8351578,0.4900102,-0.13644521,-0.06074722,0.50590235,0.25373003,-0.5344555,-0.445091,0.3118445,789.7436,807.47253,807.0696,817.1429,935.2015,13.999998,0.0,0.1151123046875,0.08404541015625,1.00457763671875,3.09539794921875,-5.263671875,-0.710296630859375,460146.5201465201,113692454.2124542,69592527.47252747,79.86944,1.0,1.0,1.0,1.0,1.0,25.0,,0 days 00:00:00.001000
2023-11-09 13:22:39.021,0.411843,-0.058273945,0.16524118,0.42945445,0.049557865,-0.3598593,-0.13301335,0.09055386,0.6134799,-0.048063684,0.04717988,0.8351578,0.4900102,-0.13644521,-0.06074722,0.50590235,0.25373003,-0.5344555,-0.445091,0.3118445,791.3553,807.0696,806.26373,816.337,1002.0879,13.999998,0.0,0.1151123046875,0.08404541015625,1.00457763671875,3.09539794921875,-5.263671875,-0.710296630859375,460146.5201465201,113692454.2124542,69592527.47252747,79.86944,1.0,1.0,1.0,1.0,1.0,25.0,,0 days 00:00:00.004000
2023-11-09 13:22:39.022,0.411843,-0.058273945,0.16524118,0.42945445,0.049557865,-0.3598593,-0.13301335,0.09055386,0.6134799,-0.048063684,0.04717988,0.8351578,0.4900102,-0.13644521,-0.06074722,0.50590235,0.25373003,-0.5344555,-0.445091,0.3118445,792.1612,805.8608,807.8755,802.6374,708.3516,13.999998,0.0,0.1151123046875,0.08404541015625,1.00457763671875,3.09539794921875,-5.263671875,-0.710296630859375,460146.5201465201,113692454.2124542,69592527.47252747,79.86944,1.0,1.0,1.0,1.0,1.0,25.0,,0 days 00:00:00.001000
2023-11-09 13:22:39.022,0.411843,-0.058273945,0.16524118,0.42945445,0.049557865,-0.3598593,-0.13301335,0.09055386,0.6134799,-0.048063684,0.04717988,0.8351578,0.4900102,-0.13644521,-0.06074722,0.50590235,0.25373003,-0.5344555,-0.445091,0.3118445,794.17584,805.8608,807.8755,808.2784,778.0586,13.999998,0.0,0.1151123046875,0.08404541015625,1.00457763671875,3.09539794921875,-5.263671875,-0.710296630859375,460146.5201465201,113692454.2124542,69592527.47252747,79.86944,1.0,1.0,1.0,1.0,1.0,25.0,,0 days 00:00:00
2023-11-09 13:22:39.023,0.411843,-0.058273945,0.16524118,0.42945445,0.049557865,-0.3598593,-0.13301335,0.09055386,0.6134799,-0.048063684,0.04717988,0.8351578,0.4900102,-0.13644521,-0.06074722,0.50590235,0.25373003,-0.5344555,-0.445091,0.3118445,804.65204,804.65204,805.05493,807.0696,838.49817,13.999998,0.0,0.1151123046875,0.08404541015625,1.00457763671875,3.09539794921875,-5.263671875,-0.710296630859375,460146.5201465201,113692454.2124542,69592527.47252747,79.86944,1.0,1.0,1.0,1.0,1.0,25.0,,0 days 00:00:00.001000
2023-11-09 13:22:39.059,0.411843,-0.058273945,0.16524118,0.42945445,0.049557865,-0.3598593,-0.13301335,0.09055386,0.6134799,-0.048063684,0.04717988,0.8351578,0.4900102,-0.13644521,-0.06074722,0.50590235,0.25373003,-0.5344555,-0.445091,0.3118445,814.3223,806.6667,805.05493,796.1905,728.49817,13.999998,0.0,0.11016845703125,0.08941650390625,1.00006103515625,3.1402587890625,-5.24871826171875,-0.73272705078125,460146.5201465201,113503882.78388278,69586080.58608058,79.86944,1.0,1.0,1.0,1.0,1.0,25.0,,0 days 00:00:00.036000
2023-11-09 13:22:39.060,0.411843,-0.058273945,0.16524118,0.42945445,0.049557865,-0.3598593,-0.13301335,0.09055386,0.6134799,-0.048063684,0.04717988,0.8351578,0.4900102,-0.13644521,-0.06074722,0.50590235,0.25373003,-0.5344555,-0.445091,0.3118445,803.0403,808.68134,808.68134,788.93774,760.32965,13.999998,0.0,0.11016845703125,0.08941650390625,1.00006103515625,3.1402587890625,-5.24871826171875,-0.73272705078125,460146.5201465201,113503882.78388278,69586080.58608058,79.86944,1.0,1.0,1.0,1.0,1.0,25.0,,0 days 00:00:00.001000
2023-11-09 13:22:39.061,0.411843,-0.058273945,0.16524118,0.42945445,0.049557865,-0.3598593,-0.13301335,0.09055386,0.6134799,-0.048063684,0.04717988,0.8351578,0.4900102,-0.13644521,-0.06074722,0.50590235,0.25373003,-0.5344555,-0.445091,0.3118445,803.44324,807.0696,807.0696,802.6374,805.05493,13.999998,0.0,0.11016845703125,0.08941650390625,1.00006103515625,3.1402587890625,-5.24871826171875,-0.73272705078125,460146.5201465201,113503882.78388278,69586080.58608058,79.86944,1.0,1.0,1.0,1.0,1.0,25.0,,0 days 00:00:00.001000
2023-11-09 13:22:39.061,0.411843,-0.058273945,0.16524118,0.42945445,0.049557865,-0.3598593,-0.13301335,0.09055386,0.6134799,-0.048063684,0.04717988,0.8351578,0.4900102,-0.13644521,-0.06074722,0.50590235,0.25373003,-0.5344555,-0.445091,0.3118445,814.7253,805.8608,803.44324,805.4579,740.58606,13.999998,0.0,0.11016845703125,0.08941650390625,1.00006103515625,3.1402587890625,-5.24871826171875,-0.73272705078125,460146.5201465201,113503882.78388278,69586080.58608058,79.86944,1.0,1.0,1.0,1.0,1.0,25.0,,0 days 00:00:00
2023-11-09 13:22:39.062,0.411843,-0.058273945,0.16524118,0.42945445,0.049557865,-0.3598593,-0.13301335,0.09055386,0.6134799,-0.048063684,0.04717988,0.8351578,0.4900102,-0.13644521,-0.06074722,0.50590235,0.25373003,-0.5344555,-0.445091,0.3118445,815.12823,809.4872,803.44324,814.7253,714.7985,13.999998,0.0,0.11016845703125,0.08941650390625,1.00006103515625,3.1402587890625,-5.24871826171875,-0.73272705078125,460146.5201465201,113503882.78388278,69586080.58608058,79.86944,1.0,1.0,1.0,1.0,1.0,25.0,,0 days 00:00:00.001000
2023-11-09 13:22:39.062,0.411843,-0.058273945,0.16524118,0.42945445,0.049557865,-0.3598593,-0.13301335,0.09055386,0.6134799,-0.048063684,0.04717988,0.8351578,0.4900102,-0.13644521,-0.06074722,0.50590235,0.25373003,-0.5344555,-0.445091,0.3118445,814.7253,813.1135,809.0842,820.3663,751.06226,13.999998,0.0,0.11016845703125,0.08941650390625,1.00006103515625,3.1402587890625,-5.24871826171875,-0.73272705078125,460146.5201465201,113503882.78388278,69586080.58608058,79.86944,1.0,1.0,1.0,1.0,1.0,25.0,,0 days 00:00:00
2023-11-09 13:22:39.062,0.411843,-0.058273945,0.16524118,0.42945445,0.049557865,-0.3598593,-0.13301335,0.09055386,0.6134799,-0.048063684,0.04717988,0.8351578,0.4900102,-0.13644521,-0.06074722,0.50590235,0.25373003,-0.5344555,-0.445091,0.3118445,813.91943,813.1135,808.2784,820.3663,995.2381,13.999998,0.0,0.11016845703125,0.08941650390625,1.00006103515625,3.1402587890625,-5.24871826171875,-0.73272705078125,460146.5201465201,113503882.78388278,69586080.58608058,79.86944,1.0,1.0,1.0,1.0,1.0,25.0,,0 days 00:00:00
2023-11-09 13:22:39.063,0.411843,-0.058273945,0.16524118,0.42945445,0.049557865,-0.3598593,-0.13301335,0.09055386,0.6134799,-0.048063684,0.04717988,0.8351578,0.4900102,-0.13644521,-0.06074722,0.50590235,0.25373003,-0.5344555,-0.445091,0.3118445,812.3077,810.696,804.2491,819.5604,1085.0916,13.999998,0.0,0.11016845703125,0.08941650390625,1.00006103515625,3.1402587890625,-5.24871826171875,-0.73272705078125,460146.5201465201,113503882.78388278,69586080.58608058,79.86944,1.0,1.0,1.0,1.0,1.0,25.0,,0 days 00:00:00.001000
2023-11-09 13:22:39.063,0.411843,-0.058273945,0.16524118,0.42945445,0.049557865,-0.3598593,-0.13301335,0.09055386,0.6134799,-0.048063684,0.04717988,0.8351578,0.4900102,-0.13644521,-0.06074722,0.50590235,0.25373003,-0.5344555,-0.445091,0.3118445,807.47253,809.4872,804.65204,799.41394,843.73627,13.999998,0.0,0.11016845703125,0.08941650390625,1.00006103515625,3.1402587890625,-5.24871826171875,-0.73272705078125,460146.5201465201,113503882.78388278,69586080.58608058,79.86944,1.0,1.0,1.0,1.0,1.0,25.0,,0 days 00:00:00
2023-11-09 13:22:39.064,0.411843,-0.058273945,0.16524118,0.42945445,0.049557865,-0.3598593,-0.13301335,0.09055386,0.6134799,-0.048063684,0.04717988,0.8351578,0.4900102,-0.13644521,-0.06074722,0.50590235,0.25373003,-0.5344555,-0.445091,0.3118445,809.0842,813.91943,805.8608,800.6227,796.5934,13.999998,0.0,0.11016845703125,0.08941650390625,1.00006103515625,3.1402587890625,-5.24871826171875,-0.73272705078125,460146.5201465201,113503882.78388278,69586080.58608058,79.86944,1.0,1.0,1.0,1.0,1.0,25.0,,0 days 00:00:00.001000
2023-11-09 13:22:39.064,0.411843,-0.058273945,0.16524118,0.42945445,0.049557865,-0.3598593,-0.13301335,0.09055386,0.6134799,-0.048063684,0.04717988,0.8351578,0.4900102,-0.13644521,-0.06074722,0.50590235,0.25373003,-0.5344555,-0.445091,0.3118445,813.5165,813.91943,809.89014,811.0989,790.14655,13.999998,0.0,0.11016845703125,0.08941650390625,1.00006103515625,3.1402587890625,-5.24871826171875,-0.73272705078125,460146.5201465201,113503882.78388278,69586080.58608058,79.86944,1.0,1.0,1.0,1.0,1.0,25.0,,0 days 00:00:00
2023-11-09 13:22:39.065,0.411843,-0.058273945,0.16524118,0.42945445,0.049557865,-0.3598593,-0.13301335,0.09055386,0.6134799,-0.048063684,0.04717988,0.8351578,0.4900102,-0.13644521,-0.06074722,0.50590235,0.25373003,-0.5344555,-0.445091,0.3118445,814.7253,809.0842,812.71063,813.91943,838.0952,13.999998,0.0,0.11016845703125,0.08941650390625,1.00006103515625,3.1402587890625,-5.24871826171875,-0.73272705078125,460146.5201465201,113503882.78388278,69586080.58608058,79.86944,1.0,1.0,1.0,1.0,1.0,25.0,,0 days 00:00:00.001000
2023-11-09 13:22:39.097,0.411843,-0.058273945,0.16524118,0.42945445,0.049557865,-0.3598593,-0.13301335,0.09055386,0.6134799,-0.048063684,0.04717988,0.8351578,0.4900102,-0.13644521,-0.06074722,0.50590235,0.25373003,-0.5344555,-0.445091,0.3118445,816.337,809.89014,810.293,807.8755,761.13556,13.999998,0.0,0.10516357421875,0.0887451171875,0.99273681640625,3.147735595703125,-4.5159912109375,-1.054229736328125,460146.5201465201,113503882.78388278,69586080.58608058,79.86944,1.0,1.0,1.0,1.0,1.0,25.0,,0 days 00:00:00.032000
2023-11-09 13:22:39.098,0.411843,-0.058273945,0.16524118,0.42945445,0.049557865,-0.3598593,-0.13301335,0.09055386,0.6134799,-0.048063684,0.04717988,0.8351578,0.4900102,-0.13644521,-0.06074722,0.50590235,0.25373003,-0.5344555,-0.445091,0.3118445,821.978,814.3223,810.696,800.2198,731.7216,13.999998,0.0,0.10516357421875,0.0887451171875,0.99273681640625,3.147735595703125,-4.5159912109375,-1.054229736328125,460146.5201465201,113503882.78388278,69586080.58608058,79.86944,1.0,1.0,1.0,1.0,1.0,25.0,,0 days 00:00:00.001000
2023-11-09 13:22:39.098,0.411843,-0.058273945,0.16524118,0.42945445,0.049557865,-0.3598593,-0.13301335,0.09055386,0.6134799,-0.048063684,0.04717988,0.8351578,0.4900102,-0.13644521,-0.06074722,0.50590235,0.25373003,-0.5344555,-0.445091,0.3118445,828.022,813.5165,812.71063,807.0696,922.71063,13.999998,0.0,0.10516357421875,0.0887451171875,0.99273681640625,3.147735595703125,-4.5159912109375,-1.054229736328125,460146.5201465201,113503882.78388278,69586080.58608058,79.86944,1.0,1.0,1.0,1.0,1.0,25.0,,0 days 00:00:00
2023-11-09 13:22:39.098,0.411843,-0.058273945,0.16524118,0.42945445,0.049557865,-0.3598593,-0.13301335,0.09055386,0.6134799,-0.048063684,0.04717988,0.8351578,0.4900102,-0.13644521,-0.06074722,0.50590235,0.25373003,-0.5344555,-0.445091,0.3118445,826.0073,814.3223,808.2784,804.2491,933.5897,13.999998,0.0,0.10516357421875,0.0887451171875,0.99273681640625,3.147735595703125,-4.5159912109375,-1.054229736328125,460146.5201465201,113503882.78388278,69586080.58608058,79.86944,1.0,1.0,1.0,1.0,1.0,25.0,,0 days 00:00:00
2023-11-09 13:22:39.098,0.411843,-0.058273945,0.16524118,0.42945445,0.049557865,-0.3598593,-0.13301335,0.09055386,0.6134799,-0.048063684,0.04717988,0.8351578,0.4900102,-0.13644521,-0.06074722,0.50590235,0.25373003,-0.5344555,-0.445091,0.3118445,819.9634,817.9487,809.4872,805.4579,689.41394,13.999998,0.0,0.10516357421875,0.0887451171875,0.99273681640625,3.147735595703125,-4.5159912109375,-1.054229736328125,460146.5201465201,113503882.78388278,69586080.58608058,79.86944,1.0,1.0,1.0,1.0,1.0,25.0,,0 days 00:00:00
2023-11-09 13:22:39.098,0.411843,-0.058273945,0.16524118,0.42945445,0.049557865,-0.3598593,-0.13301335,0.09055386,0.6134799,-0.048063684,0.04717988,0.8351578,0.4900102,-0.13644521,-0.06074722,0.50590235,0.25373003,-0.5344555,-0.445091,0.3118445,821.978,812.3077,810.293,806.26373,684.57874,13.999998,0.0,0.10516357421875,0.0887451171875,0.99273681640625,3.147735595703125,-4.5159912109375,-1.054229736328125,460146.5201465201,113503882.78388278,69586080.58608058,79.86944,1.0,1.0,1.0,1.0,1.0,25.0,,0 days 00:00:00
2023-11-09 13:22:39.099,0.411843,-0.058273945,0.16524118,0.42945445,0.049557865,-0.3598593,-0.13301335,0.09055386,0.6134799,-0.048063684,0.04717988,0.8351578,0.4900102,-0.13644521,-0.06074722,0.50590235,0.25373003,-0.5344555,-0.445091,0.3118445,816.7399,806.6667,810.293,805.8608,925.5311,13.999998,0.0,0.10516357421875,0.0887451171875,0.99273681640625,3.147735595703125,-4.5159912109375,-1.054229736328125,460146.5201465201,113503882.78388278,69586080.58608058,79.86944,1.0,1.0,1.0,1.0,1.0,25.0,,0 days 00:00:00.001000
2023-11-09 13:22:39.099,0.411843,-0.058273945,0.16524118,0.42945445,0.049557865,-0.3598593,-0.13301335,0.09055386,0.6134799,-0.048063684,0.04717988,0.8351578,0.4900102,-0.13644521,-0.06074722,0.50590235,0.25373003,-0.5344555,-0.445091,0.3118445,803.8461,811.9048,814.7253,821.5751,885.64105,13.999998,0.0,0.10516357421875,0.0887451171875,0.99273681640625,3.147735595703125,-4.5159912109375,-1.054229736328125,460146.5201465201,113503882.78388278,69586080.58608058,79.86944,1.0,1.0,1.0,1.0,1.0,25.0,,0 days 00:00:00
2023-11-09 13:22:39.099,0.411843,-0.058273945,0.16524118,0.42945445,0.049557865,-0.3598593,-0.13301335,0.09055386,0.6134799,-0.048063684,0.04717988,0.8351578,0.4900102,-0.13644521,-0.06074722,0.50590235,0.25373003,-0.5344555,-0.445091,0.3118445,806.26373,816.337,815.12823,799.81683,646.7033,13.999998,0.0,0.10516357421875,0.0887451171875,0.99273681640625,3.147735595703125,-4.5159912109375,-1.054229736328125,460146.5201465201,113503882.78388278,69586080.58608058,79.86944,1.0,1.0,1.0,1.0,1.0,25.0,,0 days 00:00:00
2023-11-09 13:22:39.099,0.4368424,-0.029534409,0.15356909,0.4363768,0.052004557,-0.35297233,-0.16010877,0.092852965,0.66362005,-0.05163477,0.043469537,0.8351578,0.50276953,-0.13038197,-0.07436293,0.51357937,0.26298028,-0.54423225,-0.48923162,0.33224314,809.89014,817.9487,812.3077,792.96704,627.3626,15.999998,0.0,0.10516357421875,0.0887451171875,0.99273681640625,3.147735595703125,-4.5159912109375,-1.054229736328125,460146.5201465201,113503882.78388278,69586080.58608058,79.86944,1.0,1.0,1.0,1.0,1.0,25.0,,0 days 00:00:00
2023-11-09 13:22:39.100,0.4368424,-0.029534409,0.15356909,0.4363768,0.052004557,-0.35297233,-0.16010877,0.092852965,0.66362005,-0.05163477,0.043469537,0.8351578,0.50276953,-0.13038197,-0.07436293,0.51357937,0.26298028,-0.54423225,-0.48923162,0.33224314,815.9341,821.5751,814.7253,809.89014,648.71796,15.999998,0.0,0.10516357421875,0.0887451171875,0.99273681640625,3.147735595703125,-4.5159912109375,-1.054229736328125,460146.5201465201,113503882.78388278,69586080.58608058,79.86944,1.0,1.0,1.0,1.0,1.0,25.0,,0 days 00:00:00.001000
2023-11-09 13:22:39.101,0.4368424,-0.029534409,0.15356909,0.4363768,0.052004557,-0.35297233,-0.16010877,0.092852965,0.66362005,-0.05163477,0.043469537,0.8351578,0.50276953,-0.13038197,-0.07436293,0.51357937,0.26298028,-0.54423225,-0.48923162,0.33224314,823.5897,821.978,813.91943,810.293,640.65936,15.999998,0.0,0.10516357421875,0.0887451171875,0.99273681640625,3.147735595703125,-4.5159912109375,-1.054229736328125,460146.5201465201,113503882.78388278,69586080.58608058,79.86944,1.0,1.0,1.0,1.0,1.0,25.0,,0 days 00:00:00.001000
2023-11-09 13:22:39.174,0.4368424,-0.029534409,0.15356909,0.4363768,0.052004557,-0.35297233,-0.16010877,0.092852965,0.66362005,-0.05163477,0.043469537,0.8351578,0.50276953,-0.13038197,-0.07436293,0.51357937,0.26298028,-0.54423225,-0.48923162,0.33224314,817.1429,821.978,813.5165,803.44324,641.8681,15.999998,0.0,0.1051025390625,0.0897216796875,0.9859619140625,3.45428466796875,-4.358978271484375,-1.697235107421875,458534.7985347985,113104981.68498167,69458754.57875457,79.86944,1.0,1.0,1.0,1.0,1.0,25.0,,0 days 00:00:00.073000
2023-11-09 13:22:39.175,0.4368424,-0.029534409,0.15356909,0.4363768,0.052004557,-0.35297233,-0.16010877,0.092852965,0.66362005,-0.05163477,0.043469537,0.8351578,0.50276953,-0.13038197,-0.07436293,0.51357937,0.26298028,-0.54423225,-0.48923162,0.33224314,816.7399,821.1722,813.5165,804.2491,808.68134,15.999998,0.0,0.1051025390625,0.0897216796875,0.9859619140625,3.45428466796875,-4.358978271484375,-1.697235107421875,458534.7985347985,113104981.68498167,69458754.57875457,79.86944,1.0,1.0,1.0,1.0,1.0,25.0,,0 days 00:00:00.001000
2023-11-09 13:22:39.176,0.4368424,-0.029534409,0.15356909,0.4363768,0.052004557,-0.35297233,-0.16010877,0.092852965,0.66362005,-0.05163477,0.043469537,0.8351578,0.50276953,-0.13038197,-0.07436293,0.51357937,0.26298028,-0.54423225,-0.48923162,0.33224314,815.5311,816.337,811.0989,807.8755,898.93774,15.999998,0.0,0.1051025390625,0.0897216796875,0.9859619140625,3.45428466796875,-4.358978271484375,-1.697235107421875,458534.7985347985,113104981.68498167,69458754.57875457,79.86944,1.0,1.0,1.0,1.0,1.0,25.0,,0 days 00:00:00.001000
2023-11-09 13:22:39.176,0.4368424,-0.029534409,0.15356909,0.4363768,0.052004557,-0.35297233,-0.16010877,0.092852965,0.66362005,-0.05163477,0.043469537,0.8351578,0.50276953,-0.13038197,-0.07436293,0.51357937,0.26298028,-0.54423225,-0.48923162,0.33224314,807.8755,813.1135,810.293,808.2784,749.0476,15.999998,0.0,0.1051025390625,0.0897216796875,0.9859619140625,3.45428466796875,-4.358978271484375,-1.697235107421875,458534.7985347985,113104981.68498167,69458754.57875457,79.86944,1.0,1.0,1.0,1.0,1.0,25.0,,0 days 00:00:00
2023-11-09 13:22:39.177,0.4368424,-0.029534409,0.15356909,0.4363768,0.052004557,-0.35297233,-0.16010877,0.092852965,0.66362005,-0.05163477,0.043469537,0.8351578,0.50276953,-0.13038197,-0.07436293,0.51357937,0.26298028,-0.54423225,-0.48923162,0.33224314,801.4286,808.2784,811.50183,823.1868,706.7399,15.999998,0.0,0.1051025390625,0.0897216796875,0.9859619140625,3.45428466796875,-4.358978271484375,-1.697235107421875,458534.7985347985,113104981.68498167,69458754.57875457,79.86944,1.0,1.0,1.0,1.0,1.0,25.0,,0 days 00:00:00.001000
2023-11-09 13:22:39.177,0.4368424,-0.029534409,0.15356909,0.4363768,0.052004557,-0.35297233,-0.16010877,0.092852965,0.66362005,-0.05163477,0.043469537,0.8351578,0.50276953,-0.13038197,-0.07436293,0.51357937,0.26298028,-0.54423225,-0.48923162,0.33224314,819.15753,808.2784,814.3223,840.5128,887.6557,15.999998,0.0,0.1051025390625,0.0897216796875,0.9859619140625,3.45428466796875,-4.358978271484375,-1.697235107421875,458534.7985347985,113104981.68498167,69458754.57875457,79.86944,1.0,1.0,1.0,1.0,1.0,25.0,,0 days 00:00:00
2023-11-09 13:22:39.178,0.4368424,-0.029534409,0.15356909,0.4363768,0.052004557,-0.35297233,-0.16010877,0.092852965,0.66362005,-0.05163477,0.043469537,0.8351578,0.50276953,-0.13038197,-0.07436293,0.51357937,0.26298028,-0.54423225,-0.48923162,0.33224314,825.2015,809.0842,805.8608,836.08057,1077.8389,15.999998,0.0,0.1051025390625,0.0897216796875,0.9859619140625,3.45428466796875,-4.358978271484375,-1.697235107421875,458534.7985347985,113104981.68498167,69458754.57875457,79.86944,1.0,1.0,1.0,1.0,1.0,25.0,,0 days 00:00:00.001000
2023-11-09 13:22:39.178,0.4368424,-0.029534409,0.15356909,0.4363768,0.052004557,-0.35297233,-0.16010877,0.092852965,0.66362005,-0.05163477,0.043469537,0.8351578,0.50276953,-0.13038197,-0.07436293,0.51357937,0.26298028,-0.54423225,-0.48923162,0.33224314,808.68134,808.2784,805.05493,827.2161,852.6007,15.999998,0.0,0.1051025390625,0.0897216796875,0.9859619140625,3.45428466796875,-4.358978271484375,-1.697235107421875,458534.7985347985,113104981.68498167,69458754.57875457,79.86944,1.0,1.0,1.0,1.0,1.0,25.0,,0 days 00:00:00
2023-11-09 13:22:39.179,0.4368424,-0.029534409,0.15356909,0.4363768,0.052004557,-0.35297233,-0.16010877,0.092852965,0.66362005,-0.05163477,0.043469537,0.8351578,0.50276953,-0.13038197,-0.07436293,0.51357937,0.26298028,-0.54423225,-0.48923162,0.33224314,816.7399,811.0989,805.05493,825.2015,751.06226,15.999998,0.0,0.1051025390625,0.0897216796875,0.9859619140625,3.45428466796875,-4.358978271484375,-1.697235107421875,458534.7985347985,113104981.68498167,69458754.57875457,79.86944,1.0,1.0,1.0,1.0,1.0,25.0,,0 days 00:00:00.001000
2023-11-09 13:22:39.179,0.4368424,-0.029534409,0.15356909,0.4363768,0.052004557,-0.35297233,-0.16010877,0.092852965,0.66362005,-0.05163477,0.043469537,0.8351578,0.50276953,-0.13038197,-0.07436293,0.51357937,0.26298028,-0.54423225,-0.48923162,0.33224314,826.0073,810.696,801.4286,819.9634,894.10254,15.999998,0.0,0.1051025390625,0.0897216796875,0.9859619140625,3.45428466796875,-4.358978271484375,-1.697235107421875,458534.7985347985,113104981.68498167,69458754.57875457,79.86944,1.0,1.0,1.0,1.0,1.0,25.0,,0 days 00:00:00
2023-11-09 13:22:39.180,0.4368424,-0.029534409,0.15356909,0.4363768,0.052004557,-0.35297233,-0.16010877,0.092852965,0.66362005,-0.05163477,0.043469537,0.8351578,0.50276953,-0.13038197,-0.07436293,0.51357937,0.26298028,-0.54423225,-0.48923162,0.33224314,829.6337,809.4872,807.0696,815.12823,834.4689,15.999998,0.0,0.1051025390625,0.0897216796875,0.9859619140625,3.45428466796875,-4.358978271484375,-1.697235107421875,458534.7985347985,113104981.68498167,69458754.57875457,79.86944,1.0,1.0,1.0,1.0,1.0,25.0,,0 days 00:00:00.001000
2023-11-09 13:22:39.181,0.4368424,-0.029534409,0.15356909,0.4363768,0.052004557,-0.35297233,-0.16010877,0.092852965,0.66362005,-0.05163477,0.043469537,0.8351578,0.50276953,-0.13038197,-0.07436293,0.51357937,0.26298028,-0.54423225,-0.48923162,0.33224314,828.022,811.50183,809.4872,817.5458,718.4249,15.999998,0.0,0.1051025390625,0.0897216796875,0.9859619140625,3.45428466796875,-4.358978271484375,-1.697235107421875,458534.7985347985,113104981.68498167,69458754.57875457,79.86944,1.0,1.0,1.0,1.0,1.0,25.0,,0 days 00:00:00.001000
2023-11-09 13:22:39.202,0.4368424,-0.029534409,0.15356909,0.4363768,0.052004557,-0.35297233,-0.16010877,0.092852965,0.66362005,-0.05163477,0.043469537,0.8351578,0.50276953,-0.13038197,-0.07436293,0.51357937,0.26298028,-0.54423225,-0.48923162,0.33224314,829.6337,815.9341,811.50183,830.0366,702.3077,15.999998,0.0,0.1051025390625,0.0897216796875,0.9859619140625,3.45428466796875,-4.358978271484375,-1.697235107421875,458534.7985347985,113104981.68498167,69458754.57875457,79.86944,1.0,1.0,1.0,1.0,1.0,25.0,,0 days 00:00:00.021000
2023-11-09 13:22:39.202,0.4368424,-0.029534409,0.15356909,0.4363768,0.052004557,-0.35297233,-0.16010877,0.092852965,0.66362005,-0.05163477,0.043469537,0.8351578,0.50276953,-0.13038197,-0.07436293,0.51357937,0.26298028,-0.54423225,-0.48923162,0.33224314,830.84247,815.9341,811.0989,836.8865,828.022,15.999998,0.0,0.1051025390625,0.0897216796875,0.9859619140625,3.45428466796875,-4.358978271484375,-1.697235107421875,458534.7985347985,113104981.68498167,69458754.57875457,79.86944,1.0,1.0,1.0,1.0,1.0,25.0,,0 days 00:00:00
2023-11-09 13:22:39.203,0.4368424,-0.029534409,0.15356909,0.4363768,0.052004557,-0.35297233,-0.16010877,0.092852965,0.66362005,-0.05163477,0.043469537,0.8351578,0.50276953,-0.13038197,-0.07436293,0.51357937,0.26298028,-0.54423225,-0.48923162,0.33224314,823.5897,813.91943,805.8608,827.619,797.8022,15.999998,0.0,0.1051025390625,0.0897216796875,0.9859619140625,3.45428466796875,-4.358978271484375,-1.697235107421875,458534.7985347985,113104981.68498167,69458754.57875457,79.86944,1.0,1.0,1.0,1.0,1.0,25.0,,0 days 00:00:00.001000
2023-11-09 13:22:39.203,0.4368424,-0.029534409,0.15356909,0.4363768,0.052004557,-0.35297233,-0.16010877,0.092852965,0.66362005,-0.05163477,0.043469537,0.8351578,0.50276953,-0.13038197,-0.07436293,0.51357937,0.26298028,-0.54423225,-0.48923162,0.33224314,810.293,813.1135,806.26373,803.44324,687.3993,15.999998,0.0,0.1051025390625,0.0897216796875,0.9859619140625,3.45428466796875,-4.358978271484375,-1.697235107421875,458534.7985347985,113104981.68498167,69458754.57875457,79.86944,1.0,1.0,1.0,1.0,1.0,25.0,,0 days 00:00:00
2023-11-09 13:22:39.203,0.4368424,-0.029534409,0.15356909,0.4363768,0.052004557,-0.35297233,-0.16010877,0.092852965,0.66362005,-0.05163477,0.043469537,0.8351578,0.50276953,-0.13038197,-0.07436293,0.51357937,0.26298028,-0.54423225,-0.48923162,0.33224314,808.68134,809.4872,807.8755,802.23444,718.8278,15.999998,0.0,0.1051025390625,0.0897216796875,0.9859619140625,3.45428466796875,-4.358978271484375,-1.697235107421875,458534.7985347985,113104981.68498167,69458754.57875457,79.86944,1.0,1.0,1.0,1.0,1.0,25.0,,0 days 00:00:00
2023-11-09 13:22:39.203,0.4368424,-0.029534409,0.15356909,0.4363768,0.052004557,-0.35297233,-0.16010877,0.092852965,0.66362005,-0.05163477,0.043469537,0.8351578,0.50276953,-0.13038197,-0.07436293,0.51357937,0.26298028,-0.54423225,-0.48923162,0.33224314,813.1135,803.8461,807.47253,821.5751,1074.6154,15.999998,0.0,0.1051025390625,0.0897216796875,0.9859619140625,3.45428466796875,-4.358978271484375,-1.697235107421875,458534.7985347985,113104981.68498167,69458754.57875457,79.86944,1.0,1.0,1.0,1.0,1.0,25.0,,0 days 00:00:00
2023-11-09 13:22:39.203,0.4368424,-0.029534409,0.15356909,0.4363768,0.052004557,-0.35297233,-0.16010877,0.092852965,0.66362005,-0.05163477,0.043469537,0.8351578,0.50276953,-0.13038197,-0.07436293,0.51357937,0.26298028,-0.54423225,-0.48923162,0.33224314,815.5311,805.05493,811.0989,834.4689,1150.3663,15.999998,0.0,0.1051025390625,0.0897216796875,0.9859619140625,3.45428466796875,-4.358978271484375,-1.697235107421875,458534.7985347985,113104981.68498167,69458754.57875457,79.86944,1.0,1.0,1.0,1.0,1.0,25.0,,0 days 00:00:00
2023-11-09 13:22:39.204,0.4368424,-0.029534409,0.15356909,0.4363768,0.052004557,-0.35297233,-0.16010877,0.092852965,0.66362005,-0.05163477,0.043469537,0.8351578,0.50276953,-0.13038197,-0.07436293,0.51357937,0.26298028,-0.54423225,-0.48923162,0.33224314,815.12823,808.2784,811.9048,823.5897,835.6777,15.999998,0.0,0.1051025390625,0.0897216796875,0.9859619140625,3.45428466796875,-4.358978271484375,-1.697235107421875,458534.7985347985,113104981.68498167,69458754.57875457,79.86944,1.0,1.0,1.0,1.0,1.0,25.0,,0 days 00:00:00.001000
2023-11-09 13:22:39.204,0.4368424,-0.029534409,0.15356909,0.4363768,0.052004557,-0.35297233,-0.16010877,0.092852965,0.66362005,-0.05163477,0.043469537,0.8351578,0.50276953,-0.13038197,-0.07436293,0.51357937,0.26298028,-0.54423225,-0.48923162,0.33224314,810.293,809.0842,810.696,808.2784,784.5055,15.999998,0.0,0.1051025390625,0.0897216796875,0.9859619140625,3.45428466796875,-4.358978271484375,-1.697235107421875,458534.7985347985,113104981.68498167,69458754.57875457,79.86944,1.0,1.0,1.0,1.0,1.0,25.0,,0 days 00:00:00
2023-11-09 13:22:39.204,0.4368424,-0.029534409,0.15356909,0.4363768,0.052004557,-0.35297233,-0.16010877,0.092852965,0.66362005,-0.05163477,0.043469537,0.8351578,0.50276953,-0.13038197,-0.07436293,0.51357937,0.26298028,-0.54423225,-0.48923162,0.33224314,808.2784,808.2784,812.3077,823.5897,892.49084,15.999998,0.0,0.1051025390625,0.0897216796875,0.9859619140625,3.45428466796875,-4.358978271484375,-1.697235107421875,458534.7985347985,113104981.68498167,69458754.57875457,79.86944,1.0,1.0,1.0,1.0,1.0,25.0,,0 days 00:00:00
2023-11-09 13:22:39.205,0.4368424,-0.029534409,0.15356909,0.4363768,0.052004557,-0.35297233,-0.16010877,0.092852965,0.66362005,-0.05163477,0.043469537,0.8351578,0.50276953,-0.13038197,-0.07436293,0.51357937,0.26298028,-0.54423225,-0.48923162,0.33224314,805.05493,807.8755,813.91943,823.1868,824.7985,15.999998,0.0,0.1051025390625,0.0897216796875,0.9859619140625,3.45428466796875,-4.358978271484375,-1.697235107421875,458534.7985347985,113104981.68498167,69458754.57875457,79.86944,1.0,1.0,1.0,1.0,1.0,25.0,,0 days 00:00:00.001000
2023-11-09 13:22:39.205,0.50801945,-0.0022596458,0.123458564,0.44715974,0.05225113,-0.33317012,-0.1763474,0.10295769,0.67258334,-0.08393553,0.01824959,0.8351578,0.5293066,-0.12556505,-0.09028682,0.5181969,0.2657659,-0.5528643,-0.51924926,0.34396583,817.9487,808.68134,815.9341,812.3077,707.5458,17.999998,0.0,0.1051025390625,0.0897216796875,0.9859619140625,3.45428466796875,-4.358978271484375,-1.697235107421875,458534.7985347985,113104981.68498167,69458754.57875457,79.86944,1.0,1.0,1.0,1.0,1.0,25.0,,0 days 00:00:00
2023-11-09 13:22:39.237,0.50801945,-0.0022596458,0.123458564,0.44715974,0.05225113,-0.33317012,-0.1763474,0.10295769,0.67258334,-0.08393553,0.01824959,0.8351578,0.5293066,-0.12556505,-0.09028682,0.5181969,0.2657659,-0.5528643,-0.51924926,0.34396583,815.5311,806.6667,812.71063,813.1135,809.89014,17.999998,0.0,0.10443115234375,0.093994140625,0.99267578125,4.05242919921875,-6.1309814453125,-0.478515625,459340.65934065933,113117069.5970696,69448278.38827838,79.86944,1.0,1.0,1.0,1.0,1.0,25.0,,0 days 00:00:00.032000
2023-11-09 13:22:39.238,0.50801945,-0.0022596458,0.123458564,0.44715974,0.05225113,-0.33317012,-0.1763474,0.10295769,0.67258334,-0.08393553,0.01824959,0.8351578,0.5293066,-0.12556505,-0.09028682,0.5181969,0.2657659,-0.5528643,-0.51924926,0.34396583,806.6667,803.0403,808.68134,814.3223,838.9011,17.999998,0.0,0.10443115234375,0.093994140625,0.99267578125,4.05242919921875,-6.1309814453125,-0.478515625,459340.65934065933,113117069.5970696,69448278.38827838,79.86944,1.0,1.0,1.0,1.0,1.0,25.0,,0 days 00:00:00.001000
2023-11-09 13:22:39.238,0.50801945,-0.0022596458,0.123458564,0.44715974,0.05225113,-0.33317012,-0.1763474,0.10295769,0.67258334,-0.08393553,0.01824959,0.8351578,0.5293066,-0.12556505,-0.09028682,0.5181969,0.2657659,-0.5528643,-0.51924926,0.34396583,807.47253,805.4579,811.50183,811.9048,734.1392,17.999998,0.0,0.10443115234375,0.093994140625,0.99267578125,4.05242919921875,-6.1309814453125,-0.478515625,459340.65934065933,113117069.5970696,69448278.38827838,79.86944,1.0,1.0,1.0,1.0,1.0,25.0,,0 days 00:00:00
2023-11-09 13:22:39.239,0.50801945,-0.0022596458,0.123458564,0.44715974,0.05225113,-0.33317012,-0.1763474,0.10295769,0.67258334,-0.08393553,0.01824959,0.8351578,0.5293066,-0.12556505,-0.09028682,0.5181969,0.2657659,-0.5528643,-0.51924926,0.34396583,809.0842,809.4872,817.9487,814.3223,718.4249,17.999998,0.0,0.10443115234375,0.093994140625,0.99267578125,4.05242919921875,-6.1309814453125,-0.478515625,459340.65934065933,113117069.5970696,69448278.38827838,79.86944,1.0,1.0,1.0,1.0,1.0,25.0,,0 days 00:00:00.001000
2023-11-09 13:22:39.239,0.50801945,-0.0022596458,0.123458564,0.44715974,0.05225113,-0.33317012,-0.1763474,0.10295769,0.67258334,-0.08393553,0.01824959,0.8351578,0.5293066,-0.12556505,-0.09028682,0.5181969,0.2657659,-0.5528643,-0.51924926,0.34396583,810.696,808.2784,816.337,814.7253,765.56775,17.999998,0.0,0.10443115234375,0.093994140625,0.99267578125,4.05242919921875,-6.1309814453125,-0.478515625,459340.65934065933,113117069.5970696,69448278.38827838,79.86944,1.0,1.0,1.0,1.0,1.0,25.0,,0 days 00:00:00
2023-11-09 13:22:39.239,0.50801945,-0.0022596458,0.123458564,0.44715974,0.05225113,-0.33317012,-0.1763474,0.10295769,0.67258334,-0.08393553,0.01824959,0.8351578,0.5293066,-0.12556505,-0.09028682,0.5181969,0.2657659,-0.5528643,-0.51924926,0.34396583,814.3223,804.65204,812.3077,813.1135,829.6337,17.999998,0.0,0.10443115234375,0.093994140625,0.99267578125,4.05242919921875,-6.1309814453125,-0.478515625,459340.65934065933,113117069.5970696,69448278.38827838,79.86944,1.0,1.0,1.0,1.0,1.0,25.0,,0 days 00:00:00
2023-11-09 13:22:39.240,0.50801945,-0.0022596458,0.123458564,0.44715974,0.05225113,-0.33317012,-0.1763474,0.10295769,0.67258334,-0.08393553,0.01824959,0.8351578,0.5293066,-0.12556505,-0.09028682,0.5181969,0.2657659,-0.5528643,-0.51924926,0.34396583,809.0842,804.2491,814.3223,815.5311,792.96704,17.999998,0.0,0.10443115234375,0.093994140625,0.99267578125,4.05242919921875,-6.1309814453125,-0.478515625,459340.65934065933,113117069.5970696,69448278.38827838,79.86944,1.0,1.0,1.0,1.0,1.0,25.0,,0 days 00:00:00.001000
2023-11-09 13:22:39.240,0.50801945,-0.0022596458,0.123458564,0.44715974,0.05225113,-0.33317012,-0.1763474,0.10295769,0.67258334,-0.08393553,0.01824959,0.8351578,0.5293066,-0.12556505,-0.09028682,0.5181969,0.2657659,-0.5528643,-0.51924926,0.34396583,793.36993,805.05493,815.9341,817.5458,815.5311,17.999998,0.0,0.10443115234375,0.093994140625,0.99267578125,4.05242919921875,-6.1309814453125,-0.478515625,459340.65934065933,113117069.5970696,69448278.38827838,79.86944,1.0,1.0,1.0,1.0,1.0,25.0,,0 days 00:00:00
2023-11-09 13:22:39.241,0.50801945,-0.0022596458,0.123458564,0.44715974,0.05225113,-0.33317012,-0.1763474,0.10295769,0.67258334,-0.08393553,0.01824959,0.8351578,0.5293066,-0.12556505,-0.09028682,0.5181969,0.2657659,-0.5528643,-0.51924926,0.34396583,789.7436,804.2491,815.12823,819.9634,984.7619,17.999998,0.0,0.10443115234375,0.093994140625,0.99267578125,4.05242919921875,-6.1309814453125,-0.478515625,459340.65934065933,113117069.5970696,69448278.38827838,79.86944,1.0,1.0,1.0,1.0,1.0,25.0,,0 days 00:00:00.001000
2023-11-09 13:22:39.241,0.50801945,-0.0022596458,0.123458564,0.44715974,0.05225113,-0.33317012,-0.1763474,0.10295769,0.67258334,-0.08393553,0.01824959,0.8351578,0.5293066,-0.12556505,-0.09028682,0.5181969,0.2657659,-0.5528643,-0.51924926,0.34396583,787.72894,803.44324,815.9341,816.337,963.00366,17.999998,0.0,0.10443115234375,0.093994140625,0.99267578125,4.05242919921875,-6.1309814453125,-0.478515625,459340.65934065933,113117069.5970696,69448278.38827838,79.86944,1.0,1.0,1.0,1.0,1.0,25.0,,0 days 00:00:00
2023-11-09 13:22:39.241,0.50801945,-0.0022596458,0.123458564,0.44715974,0.05225113,-0.33317012,-0.1763474,0.10295769,0.67258334,-0.08393553,0.01824959,0.8351578,0.5293066,-0.12556505,-0.09028682,0.5181969,0.2657659,-0.5528643,-0.51924926,0.34396583,787.326,803.8461,815.9341,814.3223,786.9231,17.999998,0.0,0.10443115234375,0.093994140625,0.99267578125,4.05242919921875,-6.1309814453125,-0.478515625,459340.65934065933,113117069.5970696,69448278.38827838,79.86944,1.0,1.0,1.0,1.0,1.0,25.0,,0 days 00:00:00
2023-11-09 13:22:39.242,0.50801945,-0.0022596458,0.123458564,0.44715974,0.05225113,-0.33317012,-0.1763474,0.10295769,0.67258334,-0.08393553,0.01824959,0.8351578,0.5293066,-0.12556505,-0.09028682,0.5181969,0.2657659,-0.5528643,-0.51924926,0.34396583,783.2967,806.6667,816.337,807.8755,664.0293,17.999998,0.0,0.10443115234375,0.093994140625,0.99267578125,4.05242919921875,-6.1309814453125,-0.478515625,459340.65934065933,113117069.5970696,69448278.38827838,79.86944,1.0,1.0,1.0,1.0,1.0,25.0,,0 days 00:00:00.001000
2023-11-09 13:22:39.296,0.50801945,-0.0022596458,0.123458564,0.44715974,0.05225113,-0.33317012,-0.1763474,0.10295769,0.67258334,-0.08393553,0.01824959,0.8351578,0.5293066,-0.12556505,-0.09028682,0.5181969,0.2657659,-0.5528643,-0.51924926,0.34396583,786.1172,807.0696,817.5458,805.05493,760.7326,17.999998,0.0,0.1104736328125,0.09454345703125,0.99444580078125,3.2598876953125,-4.613189697265625,-0.64300537109375,459340.65934065933,113117069.5970696,69448278.38827838,79.86944,1.0,1.0,1.0,1.0,1.0,25.0,,0 days 00:00:00.054000
2023-11-09 13:22:39.297,0.50801945,-0.0022596458,0.123458564,0.44715974,0.05225113,-0.33317012,-0.1763474,0.10295769,0.67258334,-0.08393553,0.01824959,0.8351578,0.5293066,-0.12556505,-0.09028682,0.5181969,0.2657659,-0.5528643,-0.51924926,0.34396583,796.5934,804.65204,817.5458,816.7399,916.6667,17.999998,0.0,0.1104736328125,0.09454345703125,0.99444580078125,3.2598876953125,-4.613189697265625,-0.64300537109375,459340.65934065933,113117069.5970696,69448278.38827838,79.86944,1.0,1.0,1.0,1.0,1.0,25.0,,0 days 00:00:00.001000
2023-11-09 13:22:39.298,0.50801945,-0.0022596458,0.123458564,0.44715974,0.05225113,-0.33317012,-0.1763474,0.10295769,0.67258334,-0.08393553,0.01824959,0.8351578,0.5293066,-0.12556505,-0.09028682,0.5181969,0.2657659,-0.5528643,-0.51924926,0.34396583,783.2967,805.05493,819.5604,823.5897,815.12823,17.999998,0.0,0.1104736328125,0.09454345703125,0.99444580078125,3.2598876953125,-4.613189697265625,-0.64300537109375,459340.65934065933,113117069.5970696,69448278.38827838,79.86944,1.0,1.0,1.0,1.0,1.0,25.0,,0 days 00:00:00.001000
2023-11-09 13:22:39.298,0.50801945,-0.0022596458,0.123458564,0.44715974,0.05225113,-0.33317012,-0.1763474,0.10295769,0.67258334,-0.08393553,0.01824959,0.8351578,0.5293066,-0.12556505,-0.09028682,0.5181969,0.2657659,-0.5528643,-0.51924926,0.34396583,790.54944,811.0989,819.5604,813.5165,688.20514,17.999998,0.0,0.1104736328125,0.09454345703125,0.99444580078125,3.2598876953125,-4.613189697265625,-0.64300537109375,459340.65934065933,113117069.5970696,69448278.38827838,79.86944,1.0,1.0,1.0,1.0,1.0,25.0,,0 days 00:00:00
2023-11-09 13:22:39.299,0.50801945,-0.0022596458,0.123458564,0.44715974,0.05225113,-0.33317012,-0.1763474,0.10295769,0.67258334,-0.08393553,0.01824959,0.8351578,0.5293066,-0.12556505,-0.09028682,0.5181969,0.2657659,-0.5528643,-0.51924926,0.34396583,799.41394,813.5165,818.7546,819.5604,829.6337,17.999998,0.0,0.1104736328125,0.09454345703125,0.99444580078125,3.2598876953125,-4.613189697265625,-0.64300537109375,459340.65934065933,113117069.5970696,69448278.38827838,79.86944,1.0,1.0,1.0,1.0,1.0,25.0,,0 days 00:00:00.001000
2023-11-09 13:22:39.299,0.50801945,-0.0022596458,0.123458564,0.44715974,0.05225113,-0.33317012,-0.1763474,0.10295769,0.67258334,-0.08393553,0.01824959,0.8351578,0.5293066,-0.12556505,-0.09028682,0.5181969,0.2657659,-0.5528643,-0.51924926,0.34396583,797.8022,808.68134,817.9487,821.978,835.6777,17.999998,0.0,0.1104736328125,0.09454345703125,0.99444580078125,3.2598876953125,-4.613189697265625,-0.64300537109375,459340.65934065933,113117069.5970696,69448278.38827838,79.86944,1.0,1.0,1.0,1.0,1.0,25.0,,0 days 00:00:00
2023-11-09 13:22:39.300,0.50801945,-0.0022596458,0.123458564,0.44715974,0.05225113,-0.33317012,-0.1763474,0.10295769,0.67258334,-0.08393553,0.01824959,0.8351578,0.5293066,-0.12556505,-0.09028682,0.5181969,0.2657659,-0.5528643,-0.51924926,0.34396583,788.1319,804.2491,819.9634,807.8755,696.6667,17.999998,0.0,0.1104736328125,0.09454345703125,0.99444580078125,3.2598876953125,-4.613189697265625,-0.64300537109375,459340.65934065933,113117069.5970696,69448278.38827838,79.86944,1.0,1.0,1.0,1.0,1.0,25.0,,0 days 00:00:00.001000
2023-11-09 13:22:39.300,0.50801945,-0.0022596458,0.123458564,0.44715974,0.05225113,-0.33317012,-0.1763474,0.10295769,0.67258334,-0.08393553,0.01824959,0.8351578,0.5293066,-0.12556505,-0.09028682,0.5181969,0.2657659,-0.5528643,-0.51924926,0.34396583,774.83514,804.65204,816.337,796.1905,685.38464,17.999998,0.0,0.1104736328125,0.09454345703125,0.99444580078125,3.2598876953125,-4.613189697265625,-0.64300537109375,459340.65934065933,113117069.5970696,69448278.38827838,79.86944,1.0,1.0,1.0,1.0,1.0,25.0,,0 days 00:00:00
2023-11-09 13:22:39.301,0.50801945,-0.0022596458,0.123458564,0.44715974,0.05225113,-0.33317012,-0.1763474,0.10295769,0.67258334,-0.08393553,0.01824959,0.8351578,0.5293066,-0.12556505,-0.09028682,0.5181969,0.2657659,-0.5528643,-0.51924926,0.34396583,782.8938,808.2784,815.5311,802.6374,837.28937,17.999998,0.0,0.1104736328125,0.09454345703125,0.99444580078125,3.2598876953125,-4.613189697265625,-0.64300537109375,459340.65934065933,113117069.5970696,69448278.38827838,79.86944,1.0,1.0,1.0,1.0,1.0,25.0,,0 days 00:00:00.001000
2023-11-09 13:22:39.301,0.50801945,-0.0022596458,0.123458564,0.44715974,0.05225113,-0.33317012,-0.1763474,0.10295769,0.67258334,-0.08393553,0.01824959,0.8351578,0.5293066,-0.12556505,-0.09028682,0.5181969,0.2657659,-0.5528643,-0.51924926,0.34396583,789.7436,813.1135,821.1722,807.0696,898.93774,17.999998,0.0,0.1104736328125,0.09454345703125,0.99444580078125,3.2598876953125,-4.613189697265625,-0.64300537109375,459340.65934065933,113117069.5970696,69448278.38827838,79.86944,1.0,1.0,1.0,1.0,1.0,25.0,,0 days 00:00:00
2023-11-09 13:22:39.302,0.50801945,-0.0022596458,0.123458564,0.44715974,0.05225113,-0.33317012,-0.1763474,0.10295769,0.67258334,-0.08393553,0.01824959,0.8351578,0.5293066,-0.12556505,-0.09028682,0.5181969,0.2657659,-0.5528643,-0.51924926,0.34396583,788.93774,815.12823,819.15753,794.9817,719.6337,17.999998,0.0,0.1104736328125,0.09454345703125,0.99444580078125,3.2598876953125,-4.613189697265625,-0.64300537109375,459340.65934065933,113117069.5970696,69448278.38827838,79.86944,1.0,1.0,1.0,1.0,1.0,25.0,,0 days 00:00:00.001000
2023-11-09 13:22:39.302,0.50801945,-0.0022596458,0.123458564,0.44715974,0.05225113,-0.33317012,-0.1763474,0.10295769,0.67258334,-0.08393553,0.01824959,0.8351578,0.5293066,-0.12556505,-0.09028682,0.5181969,0.2657659,-0.5528643,-0.51924926,0.34396583,790.9524,812.3077,817.5458,805.4579,757.50916,17.999998,0.0,0.1104736328125,0.09454345703125,0.99444580078125,3.2598876953125,-4.613189697265625,-0.64300537109375,459340.65934065933,113117069.5970696,69448278.38827838,79.86944,1.0,1.0,1.0,1.0,1.0,25.0,,0 days 00:00:00
2023-11-09 13:22:39.341,0.50801945,-0.0022596458,0.123458564,0.44715974,0.05225113,-0.33317012,-0.1763474,0.10295769,0.67258334,-0.08393553,0.01824959,0.8351578,0.5293066,-0.12556505,-0.09028682,0.5181969,0.2657659,-0.5528643,-0.51924926,0.34396583,787.72894,805.8608,819.5604,817.1429,835.6777,17.999998,0.0,0.1109619140625,0.09515380859375,0.99932861328125,3.15521240234375,-5.2935791015625,-0.37384033203125,458534.7985347985,113088864.46886449,69419267.39926739,79.86944,1.0,1.0,1.0,1.0,1.0,25.0,,0 days 00:00:00.039000
2023-11-09 13:22:39.342,0.61240965,0.023719564,0.062278494,0.4647151,0.04706485,-0.30392691,-0.16729793,0.11902579,0.67568314,-0.11422603,-0.036104266,0.8159192,0.5628107,-0.11586368,-0.10306735,0.50831246,0.27041823,-0.564751,-0.53943974,0.35200253,790.14655,808.2784,817.5458,797.3993,698.2784,19.999998,0.0,0.1109619140625,0.09515380859375,0.99932861328125,3.15521240234375,-5.2935791015625,-0.37384033203125,458534.7985347985,113088864.46886449,69419267.39926739,79.86944,1.0,1.0,1.0,1.0,1.0,25.0,,0 days 00:00:00.001000
2023-11-09 13:22:39.345,0.61240965,0.023719564,0.062278494,0.4647151,0.04706485,-0.30392691,-0.16729793,0.11902579,0.67568314,-0.11422603,-0.036104266,0.8159192,0.5628107,-0.11586368,-0.10306735,0.50831246,0.27041823,-0.564751,-0.53943974,0.35200253,788.93774,808.2784,814.3223,789.34064,629.7802,19.999998,0.0,0.1109619140625,0.09515380859375,0.99932861328125,3.15521240234375,-5.2935791015625,-0.37384033203125,458534.7985347985,113088864.46886449,69419267.39926739,79.86944,1.0,1.0,1.0,1.0,1.0,25.0,,0 days 00:00:00.003000
2023-11-09 13:22:39.345,0.61240965,0.023719564,0.062278494,0.4647151,0.04706485,-0.30392691,-0.16729793,0.11902579,0.67568314,-0.11422603,-0.036104266,0.8159192,0.5628107,-0.11586368,-0.10306735,0.50831246,0.27041823,-0.564751,-0.53943974,0.35200253,785.31134,805.4579,815.9341,810.696,712.381,19.999998,0.0,0.1109619140625,0.09515380859375,0.99932861328125,3.15521240234375,-5.2935791015625,-0.37384033203125,458534.7985347985,113088864.46886449,69419267.39926739,79.86944,1.0,1.0,1.0,1.0,1.0,25.0,,0 days 00:00:00
2023-11-09 13:22:39.345,0.61240965,0.023719564,0.062278494,0.4647151,0.04706485,-0.30392691,-0.16729793,0.11902579,0.67568314,-0.11422603,-0.036104266,0.8159192,0.5628107,-0.11586368,-0.10306735,0.50831246,0.27041823,-0.564751,-0.53943974,0.35200253,797.3993,809.89014,817.5458,816.337,729.304,19.999998,0.0,0.1109619140625,0.09515380859375,0.99932861328125,3.15521240234375,-5.2935791015625,-0.37384033203125,458534.7985347985,113088864.46886449,69419267.39926739,79.86944,1.0,1.0,1.0,1.0,1.0,25.0,,0 days 00:00:00
2023-11-09 13:22:39.346,0.61240965,0.023719564,0.062278494,0.4647151,0.04706485,-0.30392691,-0.16729793,0.11902579,0.67568314,-0.11422603,-0.036104266,0.8159192,0.5628107,-0.11586368,-0.10306735,0.50831246,0.27041823,-0.564751,-0.53943974,0.35200253,807.0696,811.0989,817.1429,799.41394,742.1978,19.999998,0.0,0.1109619140625,0.09515380859375,0.99932861328125,3.15521240234375,-5.2935791015625,-0.37384033203125,458534.7985347985,113088864.46886449,69419267.39926739,79.86944,1.0,1.0,1.0,1.0,1.0,25.0,,0 days 00:00:00.001000
2023-11-09 13:22:39.346,0.61240965,0.023719564,0.062278494,0.4647151,0.04706485,-0.30392691,-0.16729793,0.11902579,0.67568314,-0.11422603,-0.036104266,0.8159192,0.5628107,-0.11586368,-0.10306735,0.50831246,0.27041823,-0.564751,-0.53943974,0.35200253,798.60803,810.293,817.9487,792.5641,731.31866,19.999998,0.0,0.1109619140625,0.09515380859375,0.99932861328125,3.15521240234375,-5.2935791015625,-0.37384033203125,458534.7985347985,113088864.46886449,69419267.39926739,79.86944,1.0,1.0,1.0,1.0,1.0,25.0,,0 days 00:00:00
2023-11-09 13:22:39.346,0.61240965,0.023719564,0.062278494,0.4647151,0.04706485,-0.30392691,-0.16729793,0.11902579,0.67568314,-0.11422603,-0.036104266,0.8159192,0.5628107,-0.11586368,-0.10306735,0.50831246,0.27041823,-0.564751,-0.53943974,0.35200253,790.9524,811.0989,816.337,802.6374,788.1319,19.999998,0.0,0.1109619140625,0.09515380859375,0.99932861328125,3.15521240234375,-5.2935791015625,-0.37384033203125,458534.7985347985,113088864.46886449,69419267.39926739,79.86944,1.0,1.0,1.0,1.0,1.0,25.0,,0 days 00:00:00
2023-11-09 13:22:39.347,0.61240965,0.023719564,0.062278494,0.4647151,0.04706485,-0.30392691,-0.16729793,0.11902579,0.67568314,-0.11422603,-0.036104266,0.8159192,0.5628107,-0.11586368,-0.10306735,0.50831246,0.27041823,-0.564751,-0.53943974,0.35200253,794.57874,813.1135,818.7546,818.7546,884.0293,19.999998,0.0,0.1109619140625,0.09515380859375,0.99932861328125,3.15521240234375,-5.2935791015625,-0.37384033203125,458534.7985347985,113088864.46886449,69419267.39926739,79.86944,1.0,1.0,1.0,1.0,1.0,25.0,,0 days 00:00:00.001000
2023-11-09 13:22:39.347,0.61240965,0.023719564,0.062278494,0.4647151,0.04706485,-0.30392691,-0.16729793,0.11902579,0.67568314,-0.11422603,-0.036104266,0.8159192,0.5628107,-0.11586368,-0.10306735,0.50831246,0.27041823,-0.564751,-0.53943974,0.35200253,792.1612,815.9341,820.3663,818.7546,757.9121,19.999998,0.0,0.1109619140625,0.09515380859375,0.99932861328125,3.15521240234375,-5.2935791015625,-0.37384033203125,458534.7985347985,113088864.46886449,69419267.39926739,79.86944,1.0,1.0,1.0,1.0,1.0,25.0,,0 days 00:00:00
2023-11-09 13:22:39.347,0.61240965,0.023719564,0.062278494,0.4647151,0.04706485,-0.30392691,-0.16729793,0.11902579,0.67568314,-0.11422603,-0.036104266,0.8159192,0.5628107,-0.11586368,-0.10306735,0.50831246,0.27041823,-0.564751,-0.53943974,0.35200253,791.3553,809.4872,817.5458,819.5604,700.293,19.999998,0.0,0.1109619140625,0.09515380859375,0.99932861328125,3.15521240234375,-5.2935791015625,-0.37384033203125,458534.7985347985,113088864.46886449,69419267.39926739,79.86944,1.0,1.0,1.0,1.0,1.0,25.0,,0 days 00:00:00
2023-11-09 13:22:39.348,0.61240965,0.023719564,0.062278494,0.4647151,0.04706485,-0.30392691,-0.16729793,0.11902579,0.67568314,-0.11422603,-0.036104266,0.8159192,0.5628107,-0.11586368,-0.10306735,0.50831246,0.27041823,-0.564751,-0.53943974,0.35200253,797.8022,807.8755,819.15753,830.84247,742.6007,19.999998,0.0,0.1109619140625,0.09515380859375,0.99932861328125,3.15521240234375,-5.2935791015625,-0.37384033203125,458534.7985347985,113088864.46886449,69419267.39926739,79.86944,1.0,1.0,1.0,1.0,1.0,25.0,,0 days 00:00:00.001000
2023-11-09 13:22:39.384,0.61240965,0.023719564,0.062278494,0.4647151,0.04706485,-0.30392691,-0.16729793,0.11902579,0.67568314,-0.11422603,-0.036104266,0.8159192,0.5628107,-0.11586368,-0.10306735,0.50831246,0.27041823,-0.564751,-0.53943974,0.35200253,797.8022,810.696,816.337,813.91943,735.7509,19.999998,0.0,0.1109619140625,0.09515380859375,0.99932861328125,3.15521240234375,-5.2935791015625,-0.37384033203125,458534.7985347985,113088864.46886449,69419267.39926739,79.86944,1.0,1.0,1.0,1.0,1.0,25.0,,0 days 00:00:00.036000
2023-11-09 13:22:39.384,0.61240965,0.023719564,0.062278494,0.4647151,0.04706485,-0.30392691,-0.16729793,0.11902579,0.67568314,-0.11422603,-0.036104266,0.8159192,0.5628107,-0.11586368,-0.10306735,0.50831246,0.27041823,-0.564751,-0.53943974,0.35200253,798.20514,812.3077,813.91943,813.5165,748.24176,19.999998,0.0,0.1109619140625,0.09515380859375,0.99932861328125,3.15521240234375,-5.2935791015625,-0.37384033203125,458534.7985347985,113088864.46886449,69419267.39926739,79.86944,1.0,1.0,1.0,1.0,1.0,25.0,,0 days 00:00:00
2023-11-09 13:22:39.385,0.61240965,0.023719564,0.062278494,0.4647151,0.04706485,-0.30392691,-0.16729793,0.11902579,0.67568314,-0.11422603,-0.036104266,0.8159192,0.5628107,-0.11586368,-0.10306735,0.50831246,0.27041823,-0.564751,-0.53943974,0.35200253,802.6374,811.50183,816.337,814.3223,762.3443,19.999998,0.0,0.1109619140625,0.09515380859375,0.99932861328125,3.15521240234375,-5.2935791015625,-0.37384033203125,458534.7985347985,113088864.46886449,69419267.39926739,79.86944,1.0,1.0,1.0,1.0,1.0,25.0,,0 days 00:00:00.001000
2023-11-09 13:22:39.385,0.61240965,0.023719564,0.062278494,0.4647151,0.04706485,-0.30392691,-0.16729793,0.11902579,0.67568314,-0.11422603,-0.036104266,0.8159192,0.5628107,-0.11586368,-0.10306735,0.50831246,0.27041823,-0.564751,-0.53943974,0.35200253,801.02563,808.68134,814.3223,820.3663,925.12823,19.999998,0.0,0.1109619140625,0.09515380859375,0.99932861328125,3.15521240234375,-5.2935791015625,-0.37384033203125,458534.7985347985,113088864.46886449,69419267.39926739,79.86944,1.0,1.0,1.0,1.0,1.0,25.0,,0 days 00:00:00
2023-11-09 13:22:39.385,0.61240965,0.023719564,0.062278494,0.4647151,0.04706485,-0.30392691,-0.16729793,0.11902579,0.67568314,-0.11422603,-0.036104266,0.8159192,0.5628107,-0.11586368,-0.10306735,0.50831246,0.27041823,-0.564751,-0.53943974,0.35200253,803.8461,811.50183,816.337,827.619,969.85345,19.999998,0.0,0.1109619140625,0.09515380859375,0.99932861328125,3.15521240234375,-5.2935791015625,-0.37384033203125,458534.7985347985,113088864.46886449,69419267.39926739,79.86944,1.0,1.0,1.0,1.0,1.0,25.0,,0 days 00:00:00
2023-11-09 13:22:39.386,0.61240965,0.023719564,0.062278494,0.4647151,0.04706485,-0.30392691,-0.16729793,0.11902579,0.67568314,-0.11422603,-0.036104266,0.8159192,0.5628107,-0.11586368,-0.10306735,0.50831246,0.27041823,-0.564751,-0.53943974,0.35200253,797.8022,817.1429,818.3516,818.3516,717.619,19.999998,0.0,0.1109619140625,0.09515380859375,0.99932861328125,3.15521240234375,-5.2935791015625,-0.37384033203125,458534.7985347985,113088864.46886449,69419267.39926739,79.86944,1.0,1.0,1.0,1.0,1.0,25.0,,0 days 00:00:00.001000
2023-11-09 13:22:39.386,0.61240965,0.023719564,0.062278494,0.4647151,0.04706485,-0.30392691,-0.16729793,0.11902579,0.67568314,-0.11422603,-0.036104266,0.8159192,0.5628107,-0.11586368,-0.10306735,0.50831246,0.27041823,-0.564751,-0.53943974,0.35200253,798.60803,817.9487,815.5311,816.337,723.663,19.999998,0.0,0.1109619140625,0.09515380859375,0.99932861328125,3.15521240234375,-5.2935791015625,-0.37384033203125,458534.7985347985,113088864.46886449,69419267.39926739,79.86944,1.0,1.0,1.0,1.0,1.0,25.0,,0 days 00:00:00
2023-11-09 13:22:39.387,0.61240965,0.023719564,0.062278494,0.4647151,0.04706485,-0.30392691,-0.16729793,0.11902579,0.67568314,-0.11422603,-0.036104266,0.8159192,0.5628107,-0.11586368,-0.10306735,0.50831246,0.27041823,-0.564751,-0.53943974,0.35200253,799.41394,813.91943,817.5458,830.0366,920.696,19.999998,0.0,0.1109619140625,0.09515380859375,0.99932861328125,3.15521240234375,-5.2935791015625,-0.37384033203125,458534.7985347985,113088864.46886449,69419267.39926739,79.86944,1.0,1.0,1.0,1.0,1.0,25.0,,0 days 00:00:00.001000
2023-11-09 13:22:39.387,0.61240965,0.023719564,0.062278494,0.4647151,0.04706485,-0.30392691,-0.16729793,0.11902579,0.67568314,-0.11422603,-0.036104266,0.8159192,0.5628107,-0.11586368,-0.10306735,0.50831246,0.27041823,-0.564751,-0.53943974,0.35200253,796.1905,809.89014,824.3956,832.0513,863.8828,19.999998,0.0,0.1109619140625,0.09515380859375,0.99932861328125,3.15521240234375,-5.2935791015625,-0.37384033203125,458534.7985347985,113088864.46886449,69419267.39926739,79.86944,1.0,1.0,1.0,1.0,1.0,25.0,,0 days 00:00:00
2023-11-09 13:22:39.387,0.61240965,0.023719564,0.062278494,0.4647151,0.04706485,-0.30392691,-0.16729793,0.11902579,0.67568314,-0.11422603,-0.036104266,0.8159192,0.5628107,-0.11586368,-0.10306735,0.50831246,0.27041823,-0.564751,-0.53943974,0.35200253,805.4579,815.9341,823.1868,803.44324,646.7033,19.999998,0.0,0.1109619140625,0.09515380859375,0.99932861328125,3.15521240234375,-5.2935791015625,-0.37384033203125,458534.7985347985,113088864.46886449,69419267.39926739,79.86944,1.0,1.0,1.0,1.0,1.0,25.0,,0 days 00:00:00
2023-11-09 13:22:39.388,0.61240965,0.023719564,0.062278494,0.4647151,0.04706485,-0.30392691,-0.16729793,0.11902579,0.67568314,-0.11422603,-0.036104266,0.8159192,0.5628107,-0.11586368,-0.10306735,0.50831246,0.27041823,-0.564751,-0.53943974,0.35200253,815.9341,820.7692,810.696,792.5641,685.78754,19.999998,0.0,0.1109619140625,0.09515380859375,0.99932861328125,3.15521240234375,-5.2935791015625,-0.37384033203125,458534.7985347985,113088864.46886449,69419267.39926739,79.86944,1.0,1.0,1.0,1.0,1.0,25.0,,0 days 00:00:00.001000
2023-11-09 13:22:39.388,0.61240965,0.023719564,0.062278494,0.4647151,0.04706485,-0.30392691,-0.16729793,0.11902579,0.67568314,-0.11422603,-0.036104266,0.8159192,0.5628107,-0.11586368,-0.10306735,0.50831246,0.27041823,-0.564751,-0.53943974,0.35200253,816.7399,817.1429,807.0696,807.8755,747.03296,19.999998,0.0,0.1109619140625,0.09515380859375,0.99932861328125,3.15521240234375,-5.2935791015625,-0.37384033203125,458534.7985347985,113088864.46886449,69419267.39926739,79.86944,1.0,1.0,1.0,1.0,1.0,25.0,,0 days 00:00:00
2023-11-09 13:22:39.419,0.61240965,0.023719564,0.062278494,0.4647151,0.04706485,-0.30392691,-0.16729793,0.11902579,0.67568314,-0.11422603,-0.036104266,0.8159192,0.5628107,-0.11586368,-0.10306735,0.50831246,0.27041823,-0.564751,-0.53943974,0.35200253,789.7436,809.89014,813.5165,817.1429,763.1502,19.999998,0.0,0.1055908203125,0.09637451171875,1.00274658203125,2.6318359375,-3.745880126953125,-0.635528564453125,459340.65934065933,113233919.4139194,69441025.64102563,79.86944,1.0,1.0,1.0,1.0,1.0,25.0,,0 days 00:00:00.031000
2023-11-09 13:22:39.419,0.61240965,0.023719564,0.062278494,0.4647151,0.04706485,-0.30392691,-0.16729793,0.11902579,0.67568314,-0.11422603,-0.036104266,0.8159192,0.5628107,-0.11586368,-0.10306735,0.50831246,0.27041823,-0.564751,-0.53943974,0.35200253,767.5824,804.65204,821.5751,814.7253,776.4469,19.999998,0.0,0.1055908203125,0.09637451171875,1.00274658203125,2.6318359375,-3.745880126953125,-0.635528564453125,459340.65934065933,113233919.4139194,69441025.64102563,79.86944,1.0,1.0,1.0,1.0,1.0,25.0,,0 days 00:00:00
2023-11-09 13:22:39.420,0.61240965,0.023719564,0.062278494,0.4647151,0.04706485,-0.30392691,-0.16729793,0.11902579,0.67568314,-0.11422603,-0.036104266,0.8159192,0.5628107,-0.11586368,-0.10306735,0.50831246,0.27041823,-0.564751,-0.53943974,0.35200253,769.59705,804.65204,820.3663,804.2491,783.69965,19.999998,0.0,0.1055908203125,0.09637451171875,1.00274658203125,2.6318359375,-3.745880126953125,-0.635528564453125,459340.65934065933,113233919.4139194,69441025.64102563,79.86944,1.0,1.0,1.0,1.0,1.0,25.0,,0 days 00:00:00.001000
2023-11-09 13:22:39.420,0.72946125,0.04869113,-0.022812296,0.4774504,0.04235196,-0.27176628,-0.1392215,0.15126067,0.6830632,-0.13999245,-0.08240831,0.74672985,0.60575706,-0.100108616,-0.11155705,0.50133467,0.27393028,-0.5817848,-0.55597955,0.36128968,774.0293,801.8315,811.50183,783.69965,767.98535,21.999996,0.0,0.1055908203125,0.09637451171875,1.00274658203125,2.6318359375,-3.745880126953125,-0.635528564453125,459340.65934065933,113233919.4139194,69441025.64102563,79.86944,1.0,1.0,1.0,1.0,1.0,25.0,,0 days 00:00:00
2023-11-09 13:22:39.422,0.72946125,0.04869113,-0.022812296,0.4774504,0.04235196,-0.27176628,-0.1392215,0.15126067,0.6830632,-0.13999245,-0.08240831,0.74672985,0.60575706,-0.100108616,-0.11155705,0.50133467,0.27393028,-0.5817848,-0.55597955,0.36128968,769.19415,795.78754,818.3516,782.8938,776.04395,21.999996,0.0,0.1055908203125,0.09637451171875,1.00274658203125,2.6318359375,-3.745880126953125,-0.635528564453125,459340.65934065933,113233919.4139194,69441025.64102563,79.86944,1.0,1.0,1.0,1.0,1.0,25.0,,0 days 00:00:00.002000
2023-11-09 13:22:39.423,0.72946125,0.04869113,-0.022812296,0.4774504,0.04235196,-0.27176628,-0.1392215,0.15126067,0.6830632,-0.13999245,-0.08240831,0.74672985,0.60575706,-0.100108616,-0.11155705,0.50133467,0.27393028,-0.5817848,-0.55597955,0.36128968,759.92676,796.1905,822.381,789.7436,803.8461,21.999996,0.0,0.1055908203125,0.09637451171875,1.00274658203125,2.6318359375,-3.745880126953125,-0.635528564453125,459340.65934065933,113233919.4139194,69441025.64102563,79.86944,1.0,1.0,1.0,1.0,1.0,25.0,,0 days 00:00:00.001000
2023-11-09 13:22:39.423,0.72946125,0.04869113,-0.022812296,0.4774504,0.04235196,-0.27176628,-0.1392215,0.15126067,0.6830632,-0.13999245,-0.08240831,0.74672985,0.60575706,-0.100108616,-0.11155705,0.50133467,0.27393028,-0.5817848,-0.55597955,0.36128968,767.98535,799.41394,817.9487,805.05493,929.15753,21.999996,0.0,0.1055908203125,0.09637451171875,1.00274658203125,2.6318359375,-3.745880126953125,-0.635528564453125,459340.65934065933,113233919.4139194,69441025.64102563,79.86944,1.0,1.0,1.0,1.0,1.0,25.0,,0 days 00:00:00
2023-11-09 13:22:39.423,0.72946125,0.04869113,-0.022812296,0.4774504,0.04235196,-0.27176628,-0.1392215,0.15126067,0.6830632,-0.13999245,-0.08240831,0.74672985,0.60575706,-0.100108616,-0.11155705,0.50133467,0.27393028,-0.5817848,-0.55597955,0.36128968,774.43225,799.011,815.12823,809.4872,1106.8499,21.999996,0.0,0.1055908203125,0.09637451171875,1.00274658203125,2.6318359375,-3.745880126953125,-0.635528564453125,459340.65934065933,113233919.4139194,69441025.64102563,79.86944,1.0,1.0,1.0,1.0,1.0,25.0,,0 days 00:00:00
2023-11-09 13:22:39.424,0.72946125,0.04869113,-0.022812296,0.4774504,0.04235196,-0.27176628,-0.1392215,0.15126067,0.6830632,-0.13999245,-0.08240831,0.74672985,0.60575706,-0.100108616,-0.11155705,0.50133467,0.27393028,-0.5817848,-0.55597955,0.36128968,772.01465,799.41394,813.1135,792.5641,894.90845,21.999996,0.0,0.1055908203125,0.09637451171875,1.00274658203125,2.6318359375,-3.745880126953125,-0.635528564453125,459340.65934065933,113233919.4139194,69441025.64102563,79.86944,1.0,1.0,1.0,1.0,1.0,25.0,,0 days 00:00:00.001000
2023-11-09 13:22:39.424,0.72946125,0.04869113,-0.022812296,0.4774504,0.04235196,-0.27176628,-0.1392215,0.15126067,0.6830632,-0.13999245,-0.08240831,0.74672985,0.60575706,-0.100108616,-0.11155705,0.50133467,0.27393028,-0.5817848,-0.55597955,0.36128968,773.6264,798.20514,813.1135,799.81683,720.0366,21.999996,0.0,0.1055908203125,0.09637451171875,1.00274658203125,2.6318359375,-3.745880126953125,-0.635528564453125,459340.65934065933,113233919.4139194,69441025.64102563,79.86944,1.0,1.0,1.0,1.0,1.0,25.0,,0 days 00:00:00
2023-11-09 13:22:39.424,0.72946125,0.04869113,-0.022812296,0.4774504,0.04235196,-0.27176628,-0.1392215,0.15126067,0.6830632,-0.13999245,-0.08240831,0.74672985,0.60575706,-0.100108616,-0.11155705,0.50133467,0.27393028,-0.5817848,-0.55597955,0.36128968,767.5824,796.1905,817.1429,804.2491,846.1539,21.999996,0.0,0.1055908203125,0.09637451171875,1.00274658203125,2.6318359375,-3.745880126953125,-0.635528564453125,459340.65934065933,113233919.4139194,69441025.64102563,79.86944,1.0,1.0,1.0,1.0,1.0,25.0,,0 days 00:00:00
2023-11-09 13:22:39.425,0.72946125,0.04869113,-0.022812296,0.4774504,0.04235196,-0.27176628,-0.1392215,0.15126067,0.6830632,-0.13999245,-0.08240831,0.74672985,0.60575706,-0.100108616,-0.11155705,0.50133467,0.27393028,-0.5817848,-0.55597955,0.36128968,767.1795,799.41394,816.337,797.8022,832.8571,21.999996,0.0,0.1055908203125,0.09637451171875,1.00274658203125,2.6318359375,-3.745880126953125,-0.635528564453125,459340.65934065933,113233919.4139194,69441025.64102563,79.86944,1.0,1.0,1.0,1.0,1.0,25.0,,0 days 00:00:00.001000
2023-11-09 13:22:39.486,0.72946125,0.04869113,-0.022812296,0.4774504,0.04235196,-0.27176628,-0.1392215,0.15126067,0.6830632,-0.13999245,-0.08240831,0.74672985,0.60575706,-0.100108616,-0.11155705,0.50133467,0.27393028,-0.5817848,-0.55597955,0.36128968,764.7619,798.60803,819.5604,806.26373,726.8865,21.999996,0.0,0.10369873046875,0.090576171875,0.9853515625,2.52716064453125,-4.687957763671875,-0.829925537109375,459340.65934065933,113233919.4139194,69441025.64102563,79.86944,1.0,1.0,1.0,1.0,1.0,25.0,,0 days 00:00:00.061000
2023-11-09 13:22:39.486,0.72946125,0.04869113,-0.022812296,0.4774504,0.04235196,-0.27176628,-0.1392215,0.15126067,0.6830632,-0.13999245,-0.08240831,0.74672985,0.60575706,-0.100108616,-0.11155705,0.50133467,0.27393028,-0.5817848,-0.55597955,0.36128968,772.4176,797.3993,821.5751,820.7692,774.83514,21.999996,0.0,0.10369873046875,0.090576171875,0.9853515625,2.52716064453125,-4.687957763671875,-0.829925537109375,459340.65934065933,113233919.4139194,69441025.64102563,79.86944,1.0,1.0,1.0,1.0,1.0,25.0,,0 days 00:00:00
2023-11-09 13:22:39.487,0.72946125,0.04869113,-0.022812296,0.4774504,0.04235196,-0.27176628,-0.1392215,0.15126067,0.6830632,-0.13999245,-0.08240831,0.74672985,0.60575706,-0.100108616,-0.11155705,0.50133467,0.27393028,-0.5817848,-0.55597955,0.36128968,792.1612,798.60803,818.3516,822.7839,873.5531,21.999996,0.0,0.10369873046875,0.090576171875,0.9853515625,2.52716064453125,-4.687957763671875,-0.829925537109375,459340.65934065933,113233919.4139194,69441025.64102563,79.86944,1.0,1.0,1.0,1.0,1.0,25.0,,0 days 00:00:00.001000
2023-11-09 13:22:39.488,0.72946125,0.04869113,-0.022812296,0.4774504,0.04235196,-0.27176628,-0.1392215,0.15126067,0.6830632,-0.13999245,-0.08240831,0.74672985,0.60575706,-0.100108616,-0.11155705,0.50133467,0.27393028,-0.5817848,-0.55597955,0.36128968,779.67035,798.20514,811.50183,795.38464,802.23444,21.999996,0.0,0.10369873046875,0.090576171875,0.9853515625,2.52716064453125,-4.687957763671875,-0.829925537109375,459340.65934065933,113233919.4139194,69441025.64102563,79.86944,1.0,1.0,1.0,1.0,1.0,25.0,,0 days 00:00:00.001000
2023-11-09 13:22:39.488,0.72946125,0.04869113,-0.022812296,0.4774504,0.04235196,-0.27176628,-0.1392215,0.15126067,0.6830632,-0.13999245,-0.08240831,0.74672985,0.60575706,-0.100108616,-0.11155705,0.50133467,0.27393028,-0.5817848,-0.55597955,0.36128968,774.43225,802.6374,812.71063,798.60803,710.3663,21.999996,0.0,0.10369873046875,0.090576171875,0.9853515625,2.52716064453125,-4.687957763671875,-0.829925537109375,459340.65934065933,113233919.4139194,69441025.64102563,79.86944,1.0,1.0,1.0,1.0,1.0,25.0,,0 days 00:00:00
2023-11-09 13:22:39.488,0.72946125,0.04869113,-0.022812296,0.4774504,0.04235196,-0.27176628,-0.1392215,0.15126067,0.6830632,-0.13999245,-0.08240831,0.74672985,0.60575706,-0.100108616,-0.11155705,0.50133467,0.27393028,-0.5817848,-0.55597955,0.36128968,784.90845,805.4579,818.3516,825.6044,730.5128,21.999996,0.0,0.10369873046875,0.090576171875,0.9853515625,2.52716064453125,-4.687957763671875,-0.829925537109375,459340.65934065933,113233919.4139194,69441025.64102563,79.86944,1.0,1.0,1.0,1.0,1.0,25.0,,0 days 00:00:00
2023-11-09 13:22:39.489,0.72946125,0.04869113,-0.022812296,0.4774504,0.04235196,-0.27176628,-0.1392215,0.15126067,0.6830632,-0.13999245,-0.08240831,0.74672985,0.60575706,-0.100108616,-0.11155705,0.50133467,0.27393028,-0.5817848,-0.55597955,0.36128968,783.69965,801.02563,817.1429,831.2454,939.2308,21.999996,0.0,0.10369873046875,0.090576171875,0.9853515625,2.52716064453125,-4.687957763671875,-0.829925537109375,459340.65934065933,113233919.4139194,69441025.64102563,79.86944,1.0,1.0,1.0,1.0,1.0,25.0,,0 days 00:00:00.001000
2023-11-09 13:22:39.489,0.72946125,0.04869113,-0.022812296,0.4774504,0.04235196,-0.27176628,-0.1392215,0.15126067,0.6830632,-0.13999245,-0.08240831,0.74672985,0.60575706,-0.100108616,-0.11155705,0.50133467,0.27393028,-0.5817848,-0.55597955,0.36128968,781.685,800.6227,816.7399,815.12823,977.1062,21.999996,0.0,0.10369873046875,0.090576171875,0.9853515625,2.52716064453125,-4.687957763671875,-0.829925537109375,459340.65934065933,113233919.4139194,69441025.64102563,79.86944,1.0,1.0,1.0,1.0,1.0,25.0,,0 days 00:00:00
2023-11-09 13:22:39.489,0.72946125,0.04869113,-0.022812296,0.4774504,0.04235196,-0.27176628,-0.1392215,0.15126067,0.6830632,-0.13999245,-0.08240831,0.74672985,0.60575706,-0.100108616,-0.11155705,0.50133467,0.27393028,-0.5817848,-0.55597955,0.36128968,771.2088,803.44324,813.1135,797.8022,801.02563,21.999996,0.0,0.10369873046875,0.090576171875,0.9853515625,2.52716064453125,-4.687957763671875,-0.829925537109375,459340.65934065933,113233919.4139194,69441025.64102563,79.86944,1.0,1.0,1.0,1.0,1.0,25.0,,0 days 00:00:00
2023-11-09 13:22:39.490,0.72946125,0.04869113,-0.022812296,0.4774504,0.04235196,-0.27176628,-0.1392215,0.15126067,0.6830632,-0.13999245,-0.08240831,0.74672985,0.60575706,-0.100108616,-0.11155705,0.50133467,0.27393028,-0.5817848,-0.55597955,0.36128968,776.04395,807.8755,813.5165,808.68134,796.99634,21.999996,0.0,0.10369873046875,0.090576171875,0.9853515625,2.52716064453125,-4.687957763671875,-0.829925537109375,459340.65934065933,113233919.4139194,69441025.64102563,79.86944,1.0,1.0,1.0,1.0,1.0,25.0,,0 days 00:00:00.001000
2023-11-09 13:22:39.490,0.72946125,0.04869113,-0.022812296,0.4774504,0.04235196,-0.27176628,-0.1392215,0.15126067,0.6830632,-0.13999245,-0.08240831,0.74672985,0.60575706,-0.100108616,-0.11155705,0.50133467,0.27393028,-0.5817848,-0.55597955,0.36128968,783.69965,811.50183,814.3223,818.3516,862.674,21.999996,0.0,0.10369873046875,0.090576171875,0.9853515625,2.52716064453125,-4.687957763671875,-0.829925537109375,459340.65934065933,113233919.4139194,69441025.64102563,79.86944,1.0,1.0,1.0,1.0,1.0,25.0,,0 days 00:00:00
2023-11-09 13:22:39.490,0.72946125,0.04869113,-0.022812296,0.4774504,0.04235196,-0.27176628,-0.1392215,0.15126067,0.6830632,-0.13999245,-0.08240831,0.74672985,0.60575706,-0.100108616,-0.11155705,0.50133467,0.27393028,-0.5817848,-0.55597955,0.36128968,779.2674,807.47253,811.9048,811.0989,835.2747,21.999996,0.0,0.10369873046875,0.090576171875,0.9853515625,2.52716064453125,-4.687957763671875,-0.829925537109375,459340.65934065933,113233919.4139194,69441025.64102563,79.86944,1.0,1.0,1.0,1.0,1.0,25.0,,0 days 00:00:00
2023-11-09 13:22:39.516,0.72946125,0.04869113,-0.022812296,0.4774504,0.04235196,-0.27176628,-0.1392215,0.15126067,0.6830632,-0.13999245,-0.08240831,0.74672985,0.60575706,-0.100108616,-0.11155705,0.50133467,0.27393028,-0.5817848,-0.55597955,0.36128968,784.90845,803.44324,807.8755,803.0403,747.8388,21.999996,0.0,0.1065673828125,0.0880126953125,0.99957275390625,1.996307373046875,-3.409423828125,-1.57012939453125,460146.5201465201,113302417.58241758,69463589.74358974,79.86944,1.0,1.0,1.0,1.0,1.0,25.0,,0 days 00:00:00.026000
2023-11-09 13:22:39.517,0.72946125,0.04869113,-0.022812296,0.4774504,0.04235196,-0.27176628,-0.1392215,0.15126067,0.6830632,-0.13999245,-0.08240831,0.74672985,0.60575706,-0.100108616,-0.11155705,0.50133467,0.27393028,-0.5817848,-0.55597955,0.36128968,782.49084,803.8461,810.293,814.7253,769.19415,21.999996,0.0,0.1065673828125,0.0880126953125,0.99957275390625,1.996307373046875,-3.409423828125,-1.57012939453125,460146.5201465201,113302417.58241758,69463589.74358974,79.86944,1.0,1.0,1.0,1.0,1.0,25.0,,0 days 00:00:00.001000
2023-11-09 13:22:39.517,0.72946125,0.04869113,-0.022812296,0.4774504,0.04235196,-0.27176628,-0.1392215,0.15126067,0.6830632,-0.13999245,-0.08240831,0.74672985,0.60575706,-0.100108616,-0.11155705,0.50133467,0.27393028,-0.5817848,-0.55597955,0.36128968,772.4176,806.26373,817.5458,819.15753,790.9524,21.999996,0.0,0.1065673828125,0.0880126953125,0.99957275390625,1.996307373046875,-3.409423828125,-1.57012939453125,460146.5201465201,113302417.58241758,69463589.74358974,79.86944,1.0,1.0,1.0,1.0,1.0,25.0,,0 days 00:00:00
2023-11-09 13:22:39.518,0.72946125,0.04869113,-0.022812296,0.4774504,0.04235196,-0.27176628,-0.1392215,0.15126067,0.6830632,-0.13999245,-0.08240831,0.74672985,0.60575706,-0.100108616,-0.11155705,0.50133467,0.27393028,-0.5817848,-0.55597955,0.36128968,779.2674,808.68134,817.5458,820.7692,769.59705,21.999996,0.0,0.1065673828125,0.0880126953125,0.99957275390625,1.996307373046875,-3.409423828125,-1.57012939453125,460146.5201465201,113302417.58241758,69463589.74358974,79.86944,1.0,1.0,1.0,1.0,1.0,25.0,,0 days 00:00:00.001000
2023-11-09 13:22:39.518,0.72946125,0.04869113,-0.022812296,0.4774504,0.04235196,-0.27176628,-0.1392215,0.15126067,0.6830632,-0.13999245,-0.08240831,0.74672985,0.60575706,-0.100108616,-0.11155705,0.50133467,0.27393028,-0.5817848,-0.55597955,0.36128968,792.1612,809.4872,817.5458,822.7839,727.28937,21.999996,0.0,0.1065673828125,0.0880126953125,0.99957275390625,1.996307373046875,-3.409423828125,-1.57012939453125,460146.5201465201,113302417.58241758,69463589.74358974,79.86944,1.0,1.0,1.0,1.0,1.0,25.0,,0 days 00:00:00
2023-11-09 13:22:39.518,0.844515,0.07294255,-0.091576196,0.4871169,0.051176973,-0.23815721,-0.11123937,0.1862705,0.69227326,-0.17268333,-0.09974341,0.66980815,0.64250255,-0.08026556,-0.12075208,0.5008135,0.27632123,-0.5995971,-0.56886977,0.38045925,800.2198,809.89014,819.9634,822.381,893.69965,23.999996,0.0,0.1065673828125,0.0880126953125,0.99957275390625,1.996307373046875,-3.409423828125,-1.57012939453125,460146.5201465201,113302417.58241758,69463589.74358974,79.86944,1.0,1.0,1.0,1.0,1.0,25.0,,0 days 00:00:00
2023-11-09 13:22:39.520,0.844515,0.07294255,-0.091576196,0.4871169,0.051176973,-0.23815721,-0.11123937,0.1862705,0.69227326,-0.17268333,-0.09974341,0.66980815,0.64250255,-0.08026556,-0.12075208,0.5008135,0.27632123,-0.5995971,-0.56886977,0.38045925,792.5641,806.6667,817.1429,817.9487,1059.3041,23.999996,0.0,0.1065673828125,0.0880126953125,0.99957275390625,1.996307373046875,-3.409423828125,-1.57012939453125,460146.5201465201,113302417.58241758,69463589.74358974,79.86944,1.0,1.0,1.0,1.0,1.0,25.0,,0 days 00:00:00.002000
2023-11-09 13:22:39.520,0.844515,0.07294255,-0.091576196,0.4871169,0.051176973,-0.23815721,-0.11123937,0.1862705,0.69227326,-0.17268333,-0.09974341,0.66980815,0.64250255,-0.08026556,-0.12075208,0.5008135,0.27632123,-0.5995971,-0.56886977,0.38045925,786.52014,809.4872,813.91943,811.0989,856.63007,23.999996,0.0,0.1065673828125,0.0880126953125,0.99957275390625,1.996307373046875,-3.409423828125,-1.57012939453125,460146.5201465201,113302417.58241758,69463589.74358974,79.86944,1.0,1.0,1.0,1.0,1.0,25.0,,0 days 00:00:00
2023-11-09 13:22:39.521,0.844515,0.07294255,-0.091576196,0.4871169,0.051176973,-0.23815721,-0.11123937,0.1862705,0.69227326,-0.17268333,-0.09974341,0.66980815,0.64250255,-0.08026556,-0.12075208,0.5008135,0.27632123,-0.5995971,-0.56886977,0.38045925,795.78754,811.0989,808.68134,809.0842,763.1502,23.999996,0.0,0.1065673828125,0.0880126953125,0.99957275390625,1.996307373046875,-3.409423828125,-1.57012939453125,460146.5201465201,113302417.58241758,69463589.74358974,79.86944,1.0,1.0,1.0,1.0,1.0,25.0,,0 days 00:00:00.001000
2023-11-09 13:22:39.521,0.844515,0.07294255,-0.091576196,0.4871169,0.051176973,-0.23815721,-0.11123937,0.1862705,0.69227326,-0.17268333,-0.09974341,0.66980815,0.64250255,-0.08026556,-0.12075208,0.5008135,0.27632123,-0.5995971,-0.56886977,0.38045925,793.36993,807.0696,809.4872,803.44324,818.7546,23.999996,0.0,0.1065673828125,0.0880126953125,0.99957275390625,1.996307373046875,-3.409423828125,-1.57012939453125,460146.5201465201,113302417.58241758,69463589.74358974,79.86944,1.0,1.0,1.0,1.0,1.0,25.0,,0 days 00:00:00
2023-11-09 13:22:39.521,0.844515,0.07294255,-0.091576196,0.4871169,0.051176973,-0.23815721,-0.11123937,0.1862705,0.69227326,-0.17268333,-0.09974341,0.66980815,0.64250255,-0.08026556,-0.12075208,0.5008135,0.27632123,-0.5995971,-0.56886977,0.38045925,790.14655,809.0842,811.50183,812.71063,767.98535,23.999996,0.0,0.1065673828125,0.0880126953125,0.99957275390625,1.996307373046875,-3.409423828125,-1.57012939453125,460146.5201465201,113302417.58241758,69463589.74358974,79.86944,1.0,1.0,1.0,1.0,1.0,25.0,,0 days 00:00:00
2023-11-09 13:22:39.521,0.844515,0.07294255,-0.091576196,0.4871169,0.051176973,-0.23815721,-0.11123937,0.1862705,0.69227326,-0.17268333,-0.09974341,0.66980815,0.64250255,-0.08026556,-0.12075208,0.5008135,0.27632123,-0.5995971,-0.56886977,0.38045925,791.75824,810.696,815.5311,822.381,701.50183,23.999996,0.0,0.1065673828125,0.0880126953125,0.99957275390625,1.996307373046875,-3.409423828125,-1.57012939453125,460146.5201465201,113302417.58241758,69463589.74358974,79.86944,1.0,1.0,1.0,1.0,1.0,25.0,,0 days 00:00:00
2023-11-09 13:22:39.576,0.844515,0.07294255,-0.091576196,0.4871169,0.051176973,-0.23815721,-0.11123937,0.1862705,0.69227326,-0.17268333,-0.09974341,0.66980815,0.64250255,-0.08026556,-0.12075208,0.5008135,0.27632123,-0.5995971,-0.56886977,0.38045925,793.36993,813.91943,819.5604,820.3663,745.0183,23.999996,0.0,0.0989990234375,0.084716796875,0.9910888671875,2.25799560546875,-4.553375244140625,-0.04486083984375,460146.5201465201,113302417.58241758,69463589.74358974,79.86944,1.0,1.0,1.0,1.0,1.0,25.0,,0 days 00:00:00.055000
2023-11-09 13:22:39.577,0.844515,0.07294255,-0.091576196,0.4871169,0.051176973,-0.23815721,-0.11123937,0.1862705,0.69227326,-0.17268333,-0.09974341,0.66980815,0.64250255,-0.08026556,-0.12075208,0.5008135,0.27632123,-0.5995971,-0.56886977,0.38045925,793.7729,811.0989,813.5165,821.978,940.0366,23.999996,0.0,0.0989990234375,0.084716796875,0.9910888671875,2.25799560546875,-4.553375244140625,-0.04486083984375,460146.5201465201,113302417.58241758,69463589.74358974,79.86944,1.0,1.0,1.0,1.0,1.0,25.0,,0 days 00:00:00.001000
2023-11-09 13:22:39.577,0.844515,0.07294255,-0.091576196,0.4871169,0.051176973,-0.23815721,-0.11123937,0.1862705,0.69227326,-0.17268333,-0.09974341,0.66980815,0.64250255,-0.08026556,-0.12075208,0.5008135,0.27632123,-0.5995971,-0.56886977,0.38045925,782.49084,808.2784,812.3077,829.6337,1000.87915,23.999996,0.0,0.0989990234375,0.084716796875,0.9910888671875,2.25799560546875,-4.553375244140625,-0.04486083984375,460146.5201465201,113302417.58241758,69463589.74358974,79.86944,1.0,1.0,1.0,1.0,1.0,25.0,,0 days 00:00:00
2023-11-09 13:22:39.578,0.844515,0.07294255,-0.091576196,0.4871169,0.051176973,-0.23815721,-0.11123937,0.1862705,0.69227326,-0.17268333,-0.09974341,0.66980815,0.64250255,-0.08026556,-0.12075208,0.5008135,0.27632123,-0.5995971,-0.56886977,0.38045925,778.46155,812.3077,817.5458,819.15753,774.83514,23.999996,0.0,0.0989990234375,0.084716796875,0.9910888671875,2.25799560546875,-4.553375244140625,-0.04486083984375,460146.5201465201,113302417.58241758,69463589.74358974,79.86944,1.0,1.0,1.0,1.0,1.0,25.0,,0 days 00:00:00.001000
2023-11-09 13:22:39.578,0.844515,0.07294255,-0.091576196,0.4871169,0.051176973,-0.23815721,-0.11123937,0.1862705,0.69227326,-0.17268333,-0.09974341,0.66980815,0.64250255,-0.08026556,-0.12075208,0.5008135,0.27632123,-0.5995971,-0.56886977,0.38045925,789.34064,813.5165,819.5604,828.022,787.326,23.999996,0.0,0.0989990234375,0.084716796875,0.9910888671875,2.25799560546875,-4.553375244140625,-0.04486083984375,460146.5201465201,113302417.58241758,69463589.74358974,79.86944,1.0,1.0,1.0,1.0,1.0,25.0,,0 days 00:00:00
2023-11-09 13:22:39.579,0.844515,0.07294255,-0.091576196,0.4871169,0.051176973,-0.23815721,-0.11123937,0.1862705,0.69227326,-0.17268333,-0.09974341,0.66980815,0.64250255,-0.08026556,-0.12075208,0.5008135,0.27632123,-0.5995971,-0.56886977,0.38045925,792.1612,809.4872,817.9487,830.0366,910.2198,23.999996,0.0,0.0989990234375,0.084716796875,0.9910888671875,2.25799560546875,-4.553375244140625,-0.04486083984375,460146.5201465201,113302417.58241758,69463589.74358974,79.86944,1.0,1.0,1.0,1.0,1.0,25.0,,0 days 00:00:00.001000
2023-11-09 13:22:39.579,0.844515,0.07294255,-0.091576196,0.4871169,0.051176973,-0.23815721,-0.11123937,0.1862705,0.69227326,-0.17268333,-0.09974341,0.66980815,0.64250255,-0.08026556,-0.12075208,0.5008135,0.27632123,-0.5995971,-0.56886977,0.38045925,787.72894,805.4579,814.7253,817.1429,890.87915,23.999996,0.0,0.0989990234375,0.084716796875,0.9910888671875,2.25799560546875,-4.553375244140625,-0.04486083984375,460146.5201465201,113302417.58241758,69463589.74358974,79.86944,1.0,1.0,1.0,1.0,1.0,25.0,,0 days 00:00:00
2023-11-09 13:22:39.580,0.844515,0.07294255,-0.091576196,0.4871169,0.051176973,-0.23815721,-0.11123937,0.1862705,0.69227326,-0.17268333,-0.09974341,0.66980815,0.64250255,-0.08026556,-0.12075208,0.5008135,0.27632123,-0.5995971,-0.56886977,0.38045925,780.07324,808.2784,811.9048,823.5897,792.1612,23.999996,0.0,0.0989990234375,0.084716796875,0.9910888671875,2.25799560546875,-4.553375244140625,-0.04486083984375,460146.5201465201,113302417.58241758,69463589.74358974,79.86944,1.0,1.0,1.0,1.0,1.0,25.0,,0 days 00:00:00.001000
2023-11-09 13:22:39.581,0.844515,0.07294255,-0.091576196,0.4871169,0.051176973,-0.23815721,-0.11123937,0.1862705,0.69227326,-0.17268333,-0.09974341,0.66980815,0.64250255,-0.08026556,-0.12075208,0.5008135,0.27632123,-0.5995971,-0.56886977,0.38045925,780.07324,811.9048,815.12823,819.15753,754.2857,23.999996,0.0,0.0989990234375,0.084716796875,0.9910888671875,2.25799560546875,-4.553375244140625,-0.04486083984375,460146.5201465201,113302417.58241758,69463589.74358974,79.86944,1.0,1.0,1.0,1.0,1.0,25.0,,0 days 00:00:00.001000
2023-11-09 13:22:39.581,0.844515,0.07294255,-0.091576196,0.4871169,0.051176973,-0.23815721,-0.11123937,0.1862705,0.69227326,-0.17268333,-0.09974341,0.66980815,0.64250255,-0.08026556,-0.12075208,0.5008135,0.27632123,-0.5995971,-0.56886977,0.38045925,783.2967,809.0842,816.7399,823.5897,895.31134,23.999996,0.0,0.0989990234375,0.084716796875,0.9910888671875,2.25799560546875,-4.553375244140625,-0.04486083984375,460146.5201465201,113302417.58241758,69463589.74358974,79.86944,1.0,1.0,1.0,1.0,1.0,25.0,,0 days 00:00:00
2023-11-09 13:22:39.581,0.844515,0.07294255,-0.091576196,0.4871169,0.051176973,-0.23815721,-0.11123937,0.1862705,0.69227326,-0.17268333,-0.09974341,0.66980815,0.64250255,-0.08026556,-0.12075208,0.5008135,0.27632123,-0.5995971,-0.56886977,0.38045925,785.7143,809.89014,816.7399,828.4249,858.24176,23.999996,0.0,0.0989990234375,0.084716796875,0.9910888671875,2.25799560546875,-4.553375244140625,-0.04486083984375,460146.5201465201,113302417.58241758,69463589.74358974,79.86944,1.0,1.0,1.0,1.0,1.0,25.0,,0 days 00:00:00
2023-11-09 13:22:39.582,0.844515,0.07294255,-0.091576196,0.4871169,0.051176973,-0.23815721,-0.11123937,0.1862705,0.69227326,-0.17268333,-0.09974341,0.66980815,0.64250255,-0.08026556,-0.12075208,0.5008135,0.27632123,-0.5995971,-0.56886977,0.38045925,786.1172,816.337,821.5751,824.7985,727.6923,23.999996,0.0,0.0989990234375,0.084716796875,0.9910888671875,2.25799560546875,-4.553375244140625,-0.04486083984375,460146.5201465201,113302417.58241758,69463589.74358974,79.86944,1.0,1.0,1.0,1.0,1.0,25.0,,0 days 00:00:00.001000
2023-11-09 13:22:39.620,0.844515,0.07294255,-0.091576196,0.4871169,0.051176973,-0.23815721,-0.11123937,0.1862705,0.69227326,-0.17268333,-0.09974341,0.66980815,0.64250255,-0.08026556,-0.12075208,0.5008135,0.27632123,-0.5995971,-0.56886977,0.38045925,784.90845,812.71063,819.5604,834.4689,749.0476,23.999996,0.0,0.0989990234375,0.084716796875,0.9910888671875,2.25799560546875,-4.553375244140625,-0.04486083984375,460952.38095238095,113454725.27472527,69553040.29304029,79.86944,1.0,1.0,1.0,1.0,1.0,25.0,,0 days 00:00:00.038000
2023-11-09 13:22:39.621,0.844515,0.07294255,-0.091576196,0.4871169,0.051176973,-0.23815721,-0.11123937,0.1862705,0.69227326,-0.17268333,-0.09974341,0.66980815,0.64250255,-0.08026556,-0.12075208,0.5008135,0.27632123,-0.5995971,-0.56886977,0.38045925,796.99634,812.71063,815.9341,821.1722,756.7033,23.999996,0.0,0.0989990234375,0.084716796875,0.9910888671875,2.25799560546875,-4.553375244140625,-0.04486083984375,460952.38095238095,113454725.27472527,69553040.29304029,79.86944,1.0,1.0,1.0,1.0,1.0,25.0,,0 days 00:00:00.001000
2023-11-09 13:22:39.622,0.844515,0.07294255,-0.091576196,0.4871169,0.051176973,-0.23815721,-0.11123937,0.1862705,0.69227326,-0.17268333,-0.09974341,0.66980815,0.64250255,-0.08026556,-0.12075208,0.5008135,0.27632123,-0.5995971,-0.56886977,0.38045925,792.5641,814.7253,818.3516,818.3516,747.8388,23.999996,0.0,0.0989990234375,0.084716796875,0.9910888671875,2.25799560546875,-4.553375244140625,-0.04486083984375,460952.38095238095,113454725.27472527,69553040.29304029,79.86944,1.0,1.0,1.0,1.0,1.0,25.0,,0 days 00:00:00.001000
2023-11-09 13:22:39.622,0.844515,0.07294255,-0.091576196,0.4871169,0.051176973,-0.23815721,-0.11123937,0.1862705,0.69227326,-0.17268333,-0.09974341,0.66980815,0.64250255,-0.08026556,-0.12075208,0.5008135,0.27632123,-0.5995971,-0.56886977,0.38045925,782.0879,808.68134,819.5604,828.022,710.3663,23.999996,0.0,0.0989990234375,0.084716796875,0.9910888671875,2.25799560546875,-4.553375244140625,-0.04486083984375,460952.38095238095,113454725.27472527,69553040.29304029,79.86944,1.0,1.0,1.0,1.0,1.0,25.0,,0 days 00:00:00
2023-11-09 13:22:39.623,0.844515,0.07294255,-0.091576196,0.4871169,0.051176973,-0.23815721,-0.11123937,0.1862705,0.69227326,-0.17268333,-0.09974341,0.66980815,0.64250255,-0.08026556,-0.12075208,0.5008135,0.27632123,-0.5995971,-0.56886977,0.38045925,786.1172,808.68134,818.3516,829.2308,757.1062,23.999996,0.0,0.0989990234375,0.084716796875,0.9910888671875,2.25799560546875,-4.553375244140625,-0.04486083984375,460952.38095238095,113454725.27472527,69553040.29304029,79.86944,1.0,1.0,1.0,1.0,1.0,25.0,,0 days 00:00:00.001000
2023-11-09 13:22:39.624,0.844515,0.07294255,-0.091576196,0.4871169,0.051176973,-0.23815721,-0.11123937,0.1862705,0.69227326,-0.17268333,-0.09974341,0.66980815,0.64250255,-0.08026556,-0.12075208,0.5008135,0.27632123,-0.5995971,-0.56886977,0.38045925,789.34064,810.696,821.5751,827.619,947.6923,23.999996,0.0,0.0989990234375,0.084716796875,0.9910888671875,2.25799560546875,-4.553375244140625,-0.04486083984375,460952.38095238095,113454725.27472527,69553040.29304029,79.86944,1.0,1.0,1.0,1.0,1.0,25.0,,0 days 00:00:00.001000
2023-11-09 13:22:39.624,0.844515,0.07294255,-0.091576196,0.4871169,0.051176973,-0.23815721,-0.11123937,0.1862705,0.69227326,-0.17268333,-0.09974341,0.66980815,0.64250255,-0.08026556,-0.12075208,0.5008135,0.27632123,-0.5995971,-0.56886977,0.38045925,790.54944,814.7253,821.978,809.89014,882.8205,23.999996,0.0,0.0989990234375,0.084716796875,0.9910888671875,2.25799560546875,-4.553375244140625,-0.04486083984375,460952.38095238095,113454725.27472527,69553040.29304029,79.86944,1.0,1.0,1.0,1.0,1.0,25.0,,0 days 00:00:00
2023-11-09 13:22:39.625,0.86128974,0.092155926,-0.1048766,0.48365632,0.034844097,-0.19888926,-0.09933027,0.21978463,0.69227326,-0.20457943,-0.13106126,0.70992523,0.6597675,-0.060205977,-0.13833502,0.5025587,0.27962598,-0.6089109,-0.57820386,0.40853575,784.10254,815.5311,821.1722,810.293,713.1868,25.999996,0.0,0.0989990234375,0.084716796875,0.9910888671875,2.25799560546875,-4.553375244140625,-0.04486083984375,460952.38095238095,113454725.27472527,69553040.29304029,79.86944,1.0,1.0,1.0,1.0,1.0,25.0,,0 days 00:00:00.001000
2023-11-09 13:22:39.627,0.86128974,0.092155926,-0.1048766,0.48365632,0.034844097,-0.19888926,-0.09933027,0.21978463,0.69227326,-0.20457943,-0.13106126,0.70992523,0.6597675,-0.060205977,-0.13833502,0.5025587,0.27962598,-0.6089109,-0.57820386,0.40853575,784.5055,816.337,823.9927,820.7692,862.27106,25.999996,0.0,0.0989990234375,0.084716796875,0.9910888671875,2.25799560546875,-4.553375244140625,-0.04486083984375,460952.38095238095,113454725.27472527,69553040.29304029,79.86944,1.0,1.0,1.0,1.0,1.0,25.0,,0 days 00:00:00.002000
2023-11-09 13:22:39.628,0.86128974,0.092155926,-0.1048766,0.48365632,0.034844097,-0.19888926,-0.09933027,0.21978463,0.69227326,-0.20457943,-0.13106126,0.70992523,0.6597675,-0.060205977,-0.13833502,0.5025587,0.27962598,-0.6089109,-0.57820386,0.40853575,800.6227,817.1429,826.4103,825.2015,870.32965,25.999996,0.0,0.0989990234375,0.084716796875,0.9910888671875,2.25799560546875,-4.553375244140625,-0.04486083984375,460952.38095238095,113454725.27472527,69553040.29304029,79.86944,1.0,1.0,1.0,1.0,1.0,25.0,,0 days 00:00:00.001000
2023-11-09 13:22:39.628,0.86128974,0.092155926,-0.1048766,0.48365632,0.034844097,-0.19888926,-0.09933027,0.21978463,0.69227326,-0.20457943,-0.13106126,0.70992523,0.6597675,-0.060205977,-0.13833502,0.5025587,0.27962598,-0.6089109,-0.57820386,0.40853575,794.17584,811.9048,824.3956,817.1429,657.98535,25.999996,0.0,0.0989990234375,0.084716796875,0.9910888671875,2.25799560546875,-4.553375244140625,-0.04486083984375,460952.38095238095,113454725.27472527,69553040.29304029,79.86944,1.0,1.0,1.0,1.0,1.0,25.0,,0 days 00:00:00
2023-11-09 13:22:39.629,0.86128974,0.092155926,-0.1048766,0.48365632,0.034844097,-0.19888926,-0.09933027,0.21978463,0.69227326,-0.20457943,-0.13106126,0.70992523,0.6597675,-0.060205977,-0.13833502,0.5025587,0.27962598,-0.6089109,-0.57820386,0.40853575,784.10254,808.2784,824.7985,817.5458,662.8205,25.999996,0.0,0.0989990234375,0.084716796875,0.9910888671875,2.25799560546875,-4.553375244140625,-0.04486083984375,460952.38095238095,113454725.27472527,69553040.29304029,79.86944,1.0,1.0,1.0,1.0,1.0,25.0,,0 days 00:00:00.001000
2023-11-09 13:22:39.665,0.86128974,0.092155926,-0.1048766,0.48365632,0.034844097,-0.19888926,-0.09933027,0.21978463,0.69227326,-0.20457943,-0.13106126,0.70992523,0.6597675,-0.060205977,-0.13833502,0.5025587,0.27962598,-0.6089109,-0.57820386,0.40853575,788.1319,807.47253,825.2015,821.978,734.94507,25.999996,0.0,0.10369873046875,0.0836181640625,0.99322509765625,3.013153076171875,-4.964599609375,-0.949554443359375,460952.38095238095,113454725.27472527,69553040.29304029,79.86944,1.0,1.0,1.0,1.0,1.0,25.0,,0 days 00:00:00.036000
2023-11-09 13:22:39.665,0.86128974,0.092155926,-0.1048766,0.48365632,0.034844097,-0.19888926,-0.09933027,0.21978463,0.69227326,-0.20457943,-0.13106126,0.70992523,0.6597675,-0.060205977,-0.13833502,0.5025587,0.27962598,-0.6089109,-0.57820386,0.40853575,780.07324,807.8755,825.2015,823.5897,849.7802,25.999996,0.0,0.10369873046875,0.0836181640625,0.99322509765625,3.013153076171875,-4.964599609375,-0.949554443359375,460952.38095238095,113454725.27472527,69553040.29304029,79.86944,1.0,1.0,1.0,1.0,1.0,25.0,,0 days 00:00:00
2023-11-09 13:22:39.666,0.86128974,0.092155926,-0.1048766,0.48365632,0.034844097,-0.19888926,-0.09933027,0.21978463,0.69227326,-0.20457943,-0.13106126,0.70992523,0.6597675,-0.060205977,-0.13833502,0.5025587,0.27962598,-0.6089109,-0.57820386,0.40853575,781.28204,811.9048,820.3663,822.7839,807.0696,25.999996,0.0,0.10369873046875,0.0836181640625,0.99322509765625,3.013153076171875,-4.964599609375,-0.949554443359375,460952.38095238095,113454725.27472527,69553040.29304029,79.86944,1.0,1.0,1.0,1.0,1.0,25.0,,0 days 00:00:00.001000
2023-11-09 13:22:39.666,0.86128974,0.092155926,-0.1048766,0.48365632,0.034844097,-0.19888926,-0.09933027,0.21978463,0.69227326,-0.20457943,-0.13106126,0.70992523,0.6597675,-0.060205977,-0.13833502,0.5025587,0.27962598,-0.6089109,-0.57820386,0.40853575,789.34064,811.0989,815.5311,819.5604,715.6044,25.999996,0.0,0.10369873046875,0.0836181640625,0.99322509765625,3.013153076171875,-4.964599609375,-0.949554443359375,460952.38095238095,113454725.27472527,69553040.29304029,79.86944,1.0,1.0,1.0,1.0,1.0,25.0,,0 days 00:00:00
2023-11-09 13:22:39.667,0.86128974,0.092155926,-0.1048766,0.48365632,0.034844097,-0.19888926,-0.09933027,0.21978463,0.69227326,-0.20457943,-0.13106126,0.70992523,0.6597675,-0.060205977,-0.13833502,0.5025587,0.27962598,-0.6089109,-0.57820386,0.40853575,799.81683,808.68134,820.7692,824.3956,880.0,25.999996,0.0,0.10369873046875,0.0836181640625,0.99322509765625,3.013153076171875,-4.964599609375,-0.949554443359375,460952.38095238095,113454725.27472527,69553040.29304029,79.86944,1.0,1.0,1.0,1.0,1.0,25.0,,0 days 00:00:00.001000
2023-11-09 13:22:39.667,0.86128974,0.092155926,-0.1048766,0.48365632,0.034844097,-0.19888926,-0.09933027,0.21978463,0.69227326,-0.20457943,-0.13106126,0.70992523,0.6597675,-0.060205977,-0.13833502,0.5025587,0.27962598,-0.6089109,-0.57820386,0.40853575,801.8315,813.5165,822.381,818.3516,995.64105,25.999996,0.0,0.10369873046875,0.0836181640625,0.99322509765625,3.013153076171875,-4.964599609375,-0.949554443359375,460952.38095238095,113454725.27472527,69553040.29304029,79.86944,1.0,1.0,1.0,1.0,1.0,25.0,,0 days 00:00:00
2023-11-09 13:22:39.668,0.86128974,0.092155926,-0.1048766,0.48365632,0.034844097,-0.19888926,-0.09933027,0.21978463,0.69227326,-0.20457943,-0.13106126,0.70992523,0.6597675,-0.060205977,-0.13833502,0.5025587,0.27962598,-0.6089109,-0.57820386,0.40853575,790.14655,815.5311,818.7546,826.0073,933.9927,25.999996,0.0,0.10369873046875,0.0836181640625,0.99322509765625,3.013153076171875,-4.964599609375,-0.949554443359375,460952.38095238095,113454725.27472527,69553040.29304029,79.86944,1.0,1.0,1.0,1.0,1.0,25.0,,0 days 00:00:00.001000
2023-11-09 13:22:39.668,0.86128974,0.092155926,-0.1048766,0.48365632,0.034844097,-0.19888926,-0.09933027,0.21978463,0.69227326,-0.20457943,-0.13106126,0.70992523,0.6597675,-0.060205977,-0.13833502,0.5025587,0.27962598,-0.6089109,-0.57820386,0.40853575,788.5348,815.9341,812.71063,813.1135,901.3553,25.999996,0.0,0.10369873046875,0.0836181640625,0.99322509765625,3.013153076171875,-4.964599609375,-0.949554443359375,460952.38095238095,113454725.27472527,69553040.29304029,79.86944,1.0,1.0,1.0,1.0,1.0,25.0,,0 days 00:00:00
2023-11-09 13:22:39.669,0.86128974,0.092155926,-0.1048766,0.48365632,0.034844097,-0.19888926,-0.09933027,0.21978463,0.69227326,-0.20457943,-0.13106126,0.70992523,0.6597675,-0.060205977,-0.13833502,0.5025587,0.27962598,-0.6089109,-0.57820386,0.40853575,792.96704,813.1135,808.68134,817.9487,1041.978,25.999996,0.0,0.10369873046875,0.0836181640625,0.99322509765625,3.013153076171875,-4.964599609375,-0.949554443359375,460952.38095238095,113454725.27472527,69553040.29304029,79.86944,1.0,1.0,1.0,1.0,1.0,25.0,,0 days 00:00:00.001000
2023-11-09 13:22:39.669,0.86128974,0.092155926,-0.1048766,0.48365632,0.034844097,-0.19888926,-0.09933027,0.21978463,0.69227326,-0.20457943,-0.13106126,0.70992523,0.6597675,-0.060205977,-0.13833502,0.5025587,0.27962598,-0.6089109,-0.57820386,0.40853575,786.52014,813.5165,817.1429,842.1245,1046.8132,25.999996,0.0,0.10369873046875,0.0836181640625,0.99322509765625,3.013153076171875,-4.964599609375,-0.949554443359375,460952.38095238095,113454725.27472527,69553040.29304029,79.86944,1.0,1.0,1.0,1.0,1.0,25.0,,0 days 00:00:00
2023-11-09 13:22:39.670,0.86128974,0.092155926,-0.1048766,0.48365632,0.034844097,-0.19888926,-0.09933027,0.21978463,0.69227326,-0.20457943,-0.13106126,0.70992523,0.6597675,-0.060205977,-0.13833502,0.5025587,0.27962598,-0.6089109,-0.57820386,0.40853575,780.87915,817.9487,820.3663,821.978,761.53845,25.999996,0.0,0.10369873046875,0.0836181640625,0.99322509765625,3.013153076171875,-4.964599609375,-0.949554443359375,460952.38095238095,113454725.27472527,69553040.29304029,79.86944,1.0,1.0,1.0,1.0,1.0,25.0,,0 days 00:00:00.001000
2023-11-09 13:22:39.670,0.86128974,0.092155926,-0.1048766,0.48365632,0.034844097,-0.19888926,-0.09933027,0.21978463,0.69227326,-0.20457943,-0.13106126,0.70992523,0.6597675,-0.060205977,-0.13833502,0.5025587,0.27962598,-0.6089109,-0.57820386,0.40853575,790.14655,815.9341,813.1135,810.293,735.7509,25.999996,0.0,0.10369873046875,0.0836181640625,0.99322509765625,3.013153076171875,-4.964599609375,-0.949554443359375,460952.38095238095,113454725.27472527,69553040.29304029,79.86944,1.0,1.0,1.0,1.0,1.0,25.0,,0 days 00:00:00
2023-11-09 13:22:39.695,0.86128974,0.092155926,-0.1048766,0.48365632,0.034844097,-0.19888926,-0.09933027,0.21978463,0.69227326,-0.20457943,-0.13106126,0.70992523,0.6597675,-0.060205977,-0.13833502,0.5025587,0.27962598,-0.6089109,-0.57820386,0.40853575,786.52014,813.5165,810.696,809.4872,774.83514,25.999996,0.0,0.10211181640625,0.07867431640625,0.9984130859375,2.639312744140625,-4.94964599609375,-0.321502685546875,459340.65934065933,113633626.37362637,69592527.47252747,79.86944,1.0,1.0,1.0,1.0,1.0,25.0,,0 days 00:00:00.025000
2023-11-09 13:22:39.696,0.86128974,0.092155926,-0.1048766,0.48365632,0.034844097,-0.19888926,-0.09933027,0.21978463,0.69227326,-0.20457943,-0.13106126,0.70992523,0.6597675,-0.060205977,-0.13833502,0.5025587,0.27962598,-0.6089109,-0.57820386,0.40853575,781.685,812.71063,813.1135,822.381,756.30035,25.999996,0.0,0.10211181640625,0.07867431640625,0.9984130859375,2.639312744140625,-4.94964599609375,-0.321502685546875,459340.65934065933,113633626.37362637,69592527.47252747,79.86944,1.0,1.0,1.0,1.0,1.0,25.0,,0 days 00:00:00.001000
2023-11-09 13:22:39.696,0.86128974,0.092155926,-0.1048766,0.48365632,0.034844097,-0.19888926,-0.09933027,0.21978463,0.69227326,-0.20457943,-0.13106126,0.70992523,0.6597675,-0.060205977,-0.13833502,0.5025587,0.27962598,-0.6089109,-0.57820386,0.40853575,792.1612,813.91943,810.293,834.87177,732.9304,25.999996,0.0,0.10211181640625,0.07867431640625,0.9984130859375,2.639312744140625,-4.94964599609375,-0.321502685546875,459340.65934065933,113633626.37362637,69592527.47252747,79.86944,1.0,1.0,1.0,1.0,1.0,25.0,,0 days 00:00:00
2023-11-09 13:22:39.697,0.86128974,0.092155926,-0.1048766,0.48365632,0.034844097,-0.19888926,-0.09933027,0.21978463,0.69227326,-0.20457943,-0.13106126,0.70992523,0.6597675,-0.060205977,-0.13833502,0.5025587,0.27962598,-0.6089109,-0.57820386,0.40853575,792.1612,811.50183,805.4579,820.7692,720.0366,25.999996,0.0,0.10211181640625,0.07867431640625,0.9984130859375,2.639312744140625,-4.94964599609375,-0.321502685546875,459340.65934065933,113633626.37362637,69592527.47252747,79.86944,1.0,1.0,1.0,1.0,1.0,25.0,,0 days 00:00:00.001000
2023-11-09 13:22:39.697,0.86128974,0.092155926,-0.1048766,0.48365632,0.034844097,-0.19888926,-0.09933027,0.21978463,0.69227326,-0.20457943,-0.13106126,0.70992523,0.6597675,-0.060205977,-0.13833502,0.5025587,0.27962598,-0.6089109,-0.57820386,0.40853575,790.54944,811.50183,807.8755,815.12823,741.79486,25.999996,0.0,0.10211181640625,0.07867431640625,0.9984130859375,2.639312744140625,-4.94964599609375,-0.321502685546875,459340.65934065933,113633626.37362637,69592527.47252747,79.86944,1.0,1.0,1.0,1.0,1.0,25.0,,0 days 00:00:00
2023-11-09 13:22:39.697,0.86128974,0.092155926,-0.1048766,0.48365632,0.034844097,-0.19888926,-0.09933027,0.21978463,0.69227326,-0.20457943,-0.13106126,0.70992523,0.6597675,-0.060205977,-0.13833502,0.5025587,0.27962598,-0.6089109,-0.57820386,0.40853575,793.7729,813.91943,807.0696,808.2784,781.685,25.999996,0.0,0.10211181640625,0.07867431640625,0.9984130859375,2.639312744140625,-4.94964599609375,-0.321502685546875,459340.65934065933,113633626.37362637,69592527.47252747,79.86944,1.0,1.0,1.0,1.0,1.0,25.0,,0 days 00:00:00
2023-11-09 13:22:39.697,0.86128974,0.092155926,-0.1048766,0.48365632,0.034844097,-0.19888926,-0.09933027,0.21978463,0.69227326,-0.20457943,-0.13106126,0.70992523,0.6597675,-0.060205977,-0.13833502,0.5025587,0.27962598,-0.6089109,-0.57820386,0.40853575,790.14655,812.3077,806.26373,814.3223,789.34064,25.999996,0.0,0.10211181640625,0.07867431640625,0.9984130859375,2.639312744140625,-4.94964599609375,-0.321502685546875,459340.65934065933,113633626.37362637,69592527.47252747,79.86944,1.0,1.0,1.0,1.0,1.0,25.0,,0 days 00:00:00
2023-11-09 13:22:39.698,0.86128974,0.092155926,-0.1048766,0.48365632,0.034844097,-0.19888926,-0.09933027,0.21978463,0.69227326,-0.20457943,-0.13106126,0.70992523,0.6597675,-0.060205977,-0.13833502,0.5025587,0.27962598,-0.6089109,-0.57820386,0.40853575,794.17584,809.4872,810.293,815.12823,819.5604,25.999996,0.0,0.10211181640625,0.07867431640625,0.9984130859375,2.639312744140625,-4.94964599609375,-0.321502685546875,459340.65934065933,113633626.37362637,69592527.47252747,79.86944,1.0,1.0,1.0,1.0,1.0,25.0,,0 days 00:00:00.001000
2023-11-09 13:22:39.698,0.86128974,0.092155926,-0.1048766,0.48365632,0.034844097,-0.19888926,-0.09933027,0.21978463,0.69227326,-0.20457943,-0.13106126,0.70992523,0.6597675,-0.060205977,-0.13833502,0.5025587,0.27962598,-0.6089109,-0.57820386,0.40853575,793.36993,810.696,808.68134,816.7399,927.1429,25.999996,0.0,0.10211181640625,0.07867431640625,0.9984130859375,2.639312744140625,-4.94964599609375,-0.321502685546875,459340.65934065933,113633626.37362637,69592527.47252747,79.86944,1.0,1.0,1.0,1.0,1.0,25.0,,0 days 00:00:00
2023-11-09 13:22:39.698,0.8810059,0.10395785,-0.084275864,0.4714296,0.026522173,-0.1463969,-0.109541826,0.2560782,0.69227326,-0.14439565,-0.18339065,0.7750485,0.67703223,-0.044403408,-0.16900258,0.49916118,0.27881184,-0.6045255,-0.5853861,0.4362653,791.3553,814.7253,807.8755,810.293,812.71063,27.999996,0.0,0.10211181640625,0.07867431640625,0.9984130859375,2.639312744140625,-4.94964599609375,-0.321502685546875,459340.65934065933,113633626.37362637,69592527.47252747,79.86944,1.0,1.0,1.0,1.0,1.0,25.0,,0 days 00:00:00
2023-11-09 13:22:39.700,0.8810059,0.10395785,-0.084275864,0.4714296,0.026522173,-0.1463969,-0.109541826,0.2560782,0.69227326,-0.14439565,-0.18339065,0.7750485,0.67703223,-0.044403408,-0.16900258,0.49916118,0.27881184,-0.6045255,-0.5853861,0.4362653,799.41394,817.5458,805.8608,809.4872,696.26373,27.999996,0.0,0.10211181640625,0.07867431640625,0.9984130859375,2.639312744140625,-4.94964599609375,-0.321502685546875,459340.65934065933,113633626.37362637,69592527.47252747,79.86944,1.0,1.0,1.0,1.0,1.0,25.0,,0 days 00:00:00.002000
2023-11-09 13:22:39.700,0.8810059,0.10395785,-0.084275864,0.4714296,0.026522173,-0.1463969,-0.109541826,0.2560782,0.69227326,-0.14439565,-0.18339065,0.7750485,0.67703223,-0.044403408,-0.16900258,0.49916118,0.27881184,-0.6045255,-0.5853861,0.4362653,803.44324,815.5311,805.05493,823.9927,765.16486,27.999996,0.0,0.10211181640625,0.07867431640625,0.9984130859375,2.639312744140625,-4.94964599609375,-0.321502685546875,459340.65934065933,113633626.37362637,69592527.47252747,79.86944,1.0,1.0,1.0,1.0,1.0,25.0,,0 days 00:00:00
2023-11-09 13:22:39.757,0.8810059,0.10395785,-0.084275864,0.4714296,0.026522173,-0.1463969,-0.109541826,0.2560782,0.69227326,-0.14439565,-0.18339065,0.7750485,0.67703223,-0.044403408,-0.16900258,0.49916118,0.27881184,-0.6045255,-0.5853861,0.4362653,798.20514,807.47253,807.0696,819.5604,778.46155,27.999996,0.0,0.101806640625,0.09368896484375,1.00433349609375,4.523468017578125,-5.226287841796875,0.710296630859375,459340.65934065933,113633626.37362637,69592527.47252747,79.86944,1.0,1.0,1.0,1.0,1.0,25.0,,0 days 00:00:00.057000
2023-11-09 13:22:39.758,0.8810059,0.10395785,-0.084275864,0.4714296,0.026522173,-0.1463969,-0.109541826,0.2560782,0.69227326,-0.14439565,-0.18339065,0.7750485,0.67703223,-0.044403408,-0.16900258,0.49916118,0.27881184,-0.6045255,-0.5853861,0.4362653,799.011,808.68134,807.47253,823.5897,718.4249,27.999996,0.0,0.101806640625,0.09368896484375,1.00433349609375,4.523468017578125,-5.226287841796875,0.710296630859375,459340.65934065933,113633626.37362637,69592527.47252747,79.86944,1.0,1.0,1.0,1.0,1.0,25.0,,0 days 00:00:00.001000
2023-11-09 13:22:39.758,0.8810059,0.10395785,-0.084275864,0.4714296,0.026522173,-0.1463969,-0.109541826,0.2560782,0.69227326,-0.14439565,-0.18339065,0.7750485,0.67703223,-0.044403408,-0.16900258,0.49916118,0.27881184,-0.6045255,-0.5853861,0.4362653,802.23444,812.71063,809.89014,834.4689,737.76556,27.999996,0.0,0.101806640625,0.09368896484375,1.00433349609375,4.523468017578125,-5.226287841796875,0.710296630859375,459340.65934065933,113633626.37362637,69592527.47252747,79.86944,1.0,1.0,1.0,1.0,1.0,25.0,,0 days 00:00:00
2023-11-09 13:22:39.759,0.8810059,0.10395785,-0.084275864,0.4714296,0.026522173,-0.1463969,-0.109541826,0.2560782,0.69227326,-0.14439565,-0.18339065,0.7750485,0.67703223,-0.044403408,-0.16900258,0.49916118,0.27881184,-0.6045255,-0.5853861,0.4362653,809.0842,813.1135,811.0989,844.1392,811.9048,27.999996,0.0,0.101806640625,0.09368896484375,1.00433349609375,4.523468017578125,-5.226287841796875,0.710296630859375,459340.65934065933,113633626.37362637,69592527.47252747,79.86944,1.0,1.0,1.0,1.0,1.0,25.0,,0 days 00:00:00.001000
2023-11-09 13:22:39.760,0.8810059,0.10395785,-0.084275864,0.4714296,0.026522173,-0.1463969,-0.109541826,0.2560782,0.69227326,-0.14439565,-0.18339065,0.7750485,0.67703223,-0.044403408,-0.16900258,0.49916118,0.27881184,-0.6045255,-0.5853861,0.4362653,805.8608,811.9048,810.696,824.7985,772.4176,27.999996,0.0,0.101806640625,0.09368896484375,1.00433349609375,4.523468017578125,-5.226287841796875,0.710296630859375,459340.65934065933,113633626.37362637,69592527.47252747,79.86944,1.0,1.0,1.0,1.0,1.0,25.0,,0 days 00:00:00.001000
2023-11-09 13:22:39.760,0.8810059,0.10395785,-0.084275864,0.4714296,0.026522173,-0.1463969,-0.109541826,0.2560782,0.69227326,-0.14439565,-0.18339065,0.7750485,0.67703223,-0.044403408,-0.16900258,0.49916118,0.27881184,-0.6045255,-0.5853861,0.4362653,796.5934,810.696,816.7399,815.9341,710.3663,27.999996,0.0,0.101806640625,0.09368896484375,1.00433349609375,4.523468017578125,-5.226287841796875,0.710296630859375,459340.65934065933,113633626.37362637,69592527.47252747,79.86944,1.0,1.0,1.0,1.0,1.0,25.0,,0 days 00:00:00
2023-11-09 13:22:39.761,0.8810059,0.10395785,-0.084275864,0.4714296,0.026522173,-0.1463969,-0.109541826,0.2560782,0.69227326,-0.14439565,-0.18339065,0.7750485,0.67703223,-0.044403408,-0.16900258,0.49916118,0.27881184,-0.6045255,-0.5853861,0.4362653,796.1905,810.293,820.7692,827.2161,772.01465,27.999996,0.0,0.101806640625,0.09368896484375,1.00433349609375,4.523468017578125,-5.226287841796875,0.710296630859375,459340.65934065933,113633626.37362637,69592527.47252747,79.86944,1.0,1.0,1.0,1.0,1.0,25.0,,0 days 00:00:00.001000
2023-11-09 13:22:39.761,0.8810059,0.10395785,-0.084275864,0.4714296,0.026522173,-0.1463969,-0.109541826,0.2560782,0.69227326,-0.14439565,-0.18339065,0.7750485,0.67703223,-0.044403408,-0.16900258,0.49916118,0.27881184,-0.6045255,-0.5853861,0.4362653,797.3993,811.9048,819.9634,826.8132,970.2564,27.999996,0.0,0.101806640625,0.09368896484375,1.00433349609375,4.523468017578125,-5.226287841796875,0.710296630859375,459340.65934065933,113633626.37362637,69592527.47252747,79.86944,1.0,1.0,1.0,1.0,1.0,25.0,,0 days 00:00:00
2023-11-09 13:22:39.762,0.8810059,0.10395785,-0.084275864,0.4714296,0.026522173,-0.1463969,-0.109541826,0.2560782,0.69227326,-0.14439565,-0.18339065,0.7750485,0.67703223,-0.044403408,-0.16900258,0.49916118,0.27881184,-0.6045255,-0.5853861,0.4362653,801.4286,812.71063,819.9634,813.91943,926.337,27.999996,0.0,0.101806640625,0.09368896484375,1.00433349609375,4.523468017578125,-5.226287841796875,0.710296630859375,459340.65934065933,113633626.37362637,69592527.47252747,79.86944,1.0,1.0,1.0,1.0,1.0,25.0,,0 days 00:00:00.001000
2023-11-09 13:22:39.762,0.8810059,0.10395785,-0.084275864,0.4714296,0.026522173,-0.1463969,-0.109541826,0.2560782,0.69227326,-0.14439565,-0.18339065,0.7750485,0.67703223,-0.044403408,-0.16900258,0.49916118,0.27881184,-0.6045255,-0.5853861,0.4362653,801.8315,812.3077,815.9341,807.0696,650.7326,27.999996,0.0,0.101806640625,0.09368896484375,1.00433349609375,4.523468017578125,-5.226287841796875,0.710296630859375,459340.65934065933,113633626.37362637,69592527.47252747,79.86944,1.0,1.0,1.0,1.0,1.0,25.0,,0 days 00:00:00
2023-11-09 13:22:39.763,0.8810059,0.10395785,-0.084275864,0.4714296,0.026522173,-0.1463969,-0.109541826,0.2560782,0.69227326,-0.14439565,-0.18339065,0.7750485,0.67703223,-0.044403408,-0.16900258,0.49916118,0.27881184,-0.6045255,-0.5853861,0.4362653,804.2491,812.71063,816.7399,829.6337,726.8865,27.999996,0.0,0.101806640625,0.09368896484375,1.00433349609375,4.523468017578125,-5.226287841796875,0.710296630859375,459340.65934065933,113633626.37362637,69592527.47252747,79.86944,1.0,1.0,1.0,1.0,1.0,25.0,,0 days 00:00:00.001000
2023-11-09 13:22:39.764,0.8810059,0.10395785,-0.084275864,0.4714296,0.026522173,-0.1463969,-0.109541826,0.2560782,0.69227326,-0.14439565,-0.18339065,0.7750485,0.67703223,-0.044403408,-0.16900258,0.49916118,0.27881184,-0.6045255,-0.5853861,0.4362653,814.3223,809.4872,816.7399,837.6923,787.72894,27.999996,0.0,0.101806640625,0.09368896484375,1.00433349609375,4.523468017578125,-5.226287841796875,0.710296630859375,459340.65934065933,113633626.37362637,69592527.47252747,79.86944,1.0,1.0,1.0,1.0,1.0,25.0,,0 days 00:00:00.001000
2023-11-09 13:22:39.799,0.8810059,0.10395785,-0.084275864,0.4714296,0.026522173,-0.1463969,-0.109541826,0.2560782,0.69227326,-0.14439565,-0.18339065,0.7750485,0.67703223,-0.044403408,-0.16900258,0.49916118,0.27881184,-0.6045255,-0.5853861,0.4362653,812.71063,809.0842,815.9341,832.4542,777.25275,27.999996,0.0,0.10418701171875,0.092041015625,0.9957275390625,3.147735595703125,-6.08612060546875,0.478515625,459340.65934065933,113474065.93406594,69553040.29304029,79.86944,1.0,1.0,1.0,1.0,1.0,25.0,,0 days 00:00:00.035000
2023-11-09 13:22:39.800,0.8810059,0.10395785,-0.084275864,0.4714296,0.026522173,-0.1463969,-0.109541826,0.2560782,0.69227326,-0.14439565,-0.18339065,0.7750485,0.67703223,-0.044403408,-0.16900258,0.49916118,0.27881184,-0.6045255,-0.5853861,0.4362653,803.44324,812.71063,819.5604,821.978,722.8571,27.999996,0.0,0.10418701171875,0.092041015625,0.9957275390625,3.147735595703125,-6.08612060546875,0.478515625,459340.65934065933,113474065.93406594,69553040.29304029,79.86944,1.0,1.0,1.0,1.0,1.0,25.0,,0 days 00:00:00.001000
2023-11-09 13:22:39.800,0.8810059,0.10395785,-0.084275864,0.4714296,0.026522173,-0.1463969,-0.109541826,0.2560782,0.69227326,-0.14439565,-0.18339065,0.7750485,0.67703223,-0.044403408,-0.16900258,0.49916118,0.27881184,-0.6045255,-0.5853861,0.4362653,807.0696,810.696,813.91943,828.8278,755.4945,27.999996,0.0,0.10418701171875,0.092041015625,0.9957275390625,3.147735595703125,-6.08612060546875,0.478515625,459340.65934065933,113474065.93406594,69553040.29304029,79.86944,1.0,1.0,1.0,1.0,1.0,25.0,,0 days 00:00:00
