TimeStamp,Delta_TP9,Delta_AF7,Delta_AF8,Delta_TP10,Theta_TP9,Theta_AF7,Theta_AF8,Theta_TP10,Alpha_TP9,Alpha_AF7,Alpha_AF8,Alpha_TP10,Beta_TP9,Beta_AF7,Beta_AF8,Beta_TP10,Gamma_TP9,Gamma_AF7,Gamma_AF8,Gamma_TP10,RAW_TP9,RAW_AF7,RAW_AF8,RAW_TP10,AUX_RIGHT,Mellow,Concentration,Accelerometer_X,Accelerometer_Y,Accelerometer_Z,Gyro_X,Gyro_Y,Gyro_Z,PPG_Ambient,PPG_IR,PPG_Red,Heart_Rate,HeadBandOn,HSI_TP9,HSI_AF7,HSI_AF8,HSI_TP10,Battery,Elements,TimeDifference
2023-11-09 12:52:22.917,1.0089624,0.37535363,0.048858408,0.74479866,0.67904526,0.3176009,-0.3078707,0.5403207,0.5377874,0.50683683,0.26013887,0.6292205,0.6985356,-0.11967711,-0.13559021,0.5919062,0.19585502,-0.53104305,-0.4106355,0.3524603,840.9158,828.8278,822.7839,847.76556,828.8278,0.0,0.0,-0.3197021484375,0.071044921875,0.95086669921875,2.1832275390625,-4.613189697265625,0.456085205078125,384395.6043956044,104543516.48351648,49205860.8058608,67.158585,1.0,2.0,1.0,1.0,2.0,40.0,,0 days 00:00:00.044000
2023-11-09 12:52:22.918,1.0089624,0.37535363,0.048858408,0.74479866,0.67904526,0.3176009,-0.3078707,0.5403207,0.5377874,0.50683683,0.26013887,0.6292205,0.6985356,-0.11967711,-0.13559021,0.5919062,0.19585502,-0.53104305,-0.4106355,0.3524603,826.8132,826.4103,822.7839,839.304,826.0073,0.0,0.0,-0.3197021484375,0.071044921875,0.95086669921875,2.1832275390625,-4.613189697265625,0.456085205078125,384395.6043956044,104543516.48351648,49205860.8058608,67.158585,1.0,2.0,1.0,1.0,2.0,40.0,,0 days 00:00:00.001000
2023-11-09 12:52:22.919,1.0089624,0.37535363,0.048858408,0.74479866,0.67904526,0.3176009,-0.3078707,0.5403207,0.5377874,0.50683683,0.26013887,0.6292205,0.6985356,-0.11967711,-0.13559021,0.5919062,0.19585502,-0.53104305,-0.4106355,0.3524603,805.4579,816.7399,815.12823,812.3077,823.5897,0.0,0.0,-0.3197021484375,0.071044921875,0.95086669921875,2.1832275390625,-4.613189697265625,0.456085205078125,384395.6043956044,104543516.48351648,49205860.8058608,67.158585,1.0,2.0,1.0,1.0,2.0,40.0,,0 days 00:00:00.001000
2023-11-09 12:52:22.919,1.0089624,0.38103157,0.10557874,0.74479866,0.67904526,0.32287195,-0.28150994,0.5403207,0.5377874,0.50683683,0.2503719,0.6292205,0.6985356,-0.1298073,-0.13615397,0.5919062,0.19585502,-0.52775383,-0.40935522,0.3524603,803.44324,817.1429,813.91943,811.50183,843.3333,0.0,0.0,-0.3197021484375,0.071044921875,0.95086669921875,2.1832275390625,-4.613189697265625,0.456085205078125,384395.6043956044,104543516.48351648,49205860.8058608,67.158585,1.0,2.0,1.0,1.0,2.0,40.0,,0 days 00:00:00
2023-11-09 12:52:22.924,1.0089624,0.38103157,0.10557874,0.74479866,0.67904526,0.32287195,-0.28150994,0.5403207,0.5377874,0.50683683,0.2503719,0.6292205,0.6985356,-0.1298073,-0.13615397,0.5919062,0.19585502,-0.52775383,-0.40935522,0.3524603,820.3663,820.7692,813.91943,834.87177,851.39197,0.0,0.0,-0.3197021484375,0.071044921875,0.95086669921875,2.1832275390625,-4.613189697265625,0.456085205078125,384395.6043956044,104543516.48351648,49205860.8058608,67.158585,1.0,2.0,1.0,1.0,2.0,40.0,,0 days 00:00:00.005000
2023-11-09 12:52:22.924,1.0089624,0.38103157,0.10557874,0.74479866,0.67904526,0.32287195,-0.28150994,0.5403207,0.5377874,0.50683683,0.2503719,0.6292205,0.6985356,-0.1298073,-0.13615397,0.5919062,0.19585502,-0.52775383,-0.40935522,0.3524603,828.4249,819.9634,810.293,830.84247,860.2564,0.0,0.0,-0.3197021484375,0.071044921875,0.95086669921875,2.1832275390625,-4.613189697265625,0.456085205078125,384395.6043956044,104543516.48351648,49205860.8058608,67.158585,1.0,2.0,1.0,1.0,2.0,40.0,,0 days 00:00:00
2023-11-09 12:52:22.925,1.0089624,0.38103157,0.10557874,0.74479866,0.67904526,0.32287195,-0.28150994,0.5403207,0.5377874,0.50683683,0.2503719,0.6292205,0.6985356,-0.1298073,-0.13615397,0.5919062,0.19585502,-0.52775383,-0.40935522,0.3524603,803.0403,822.381,811.50183,802.6374,872.74725,0.0,0.0,-0.3197021484375,0.071044921875,0.95086669921875,2.1832275390625,-4.613189697265625,0.456085205078125,384395.6043956044,104543516.48351648,49205860.8058608,67.158585,1.0,2.0,1.0,1.0,2.0,40.0,,0 days 00:00:00.001000
2023-11-09 12:52:22.925,1.0089624,0.38103157,0.10557874,0.74479866,0.67904526,0.32287195,-0.28150994,0.5403207,0.5377874,0.50683683,0.2503719,0.6292205,0.6985356,-0.1298073,-0.13615397,0.5919062,0.19585502,-0.52775383,-0.40935522,0.3524603,798.60803,821.978,811.0989,801.4286,1046.4103,0.0,0.0,-0.3197021484375,0.071044921875,0.95086669921875,2.1832275390625,-4.613189697265625,0.456085205078125,384395.6043956044,104543516.48351648,49205860.8058608,67.158585,1.0,2.0,1.0,1.0,2.0,40.0,,0 days 00:00:00
2023-11-09 12:52:22.926,1.0089624,0.38103157,0.10557874,0.74479866,0.67904526,0.32287195,-0.28150994,0.5403207,0.5377874,0.50683683,0.2503719,0.6292205,0.6985356,-0.1298073,-0.13615397,0.5919062,0.19585502,-0.52775383,-0.40935522,0.3524603,822.381,817.9487,810.293,831.2454,1199.5238,0.0,0.0,-0.3197021484375,0.071044921875,0.95086669921875,2.1832275390625,-4.613189697265625,0.456085205078125,384395.6043956044,104543516.48351648,49205860.8058608,67.158585,1.0,2.0,1.0,1.0,2.0,40.0,,0 days 00:00:00.001000
2023-11-09 12:52:22.926,1.0089624,0.38103157,0.10557874,0.74479866,0.67904526,0.32287195,-0.28150994,0.5403207,0.5377874,0.50683683,0.2503719,0.6292205,0.6985356,-0.1298073,-0.13615397,0.5919062,0.19585502,-0.52775383,-0.40935522,0.3524603,832.4542,826.4103,819.5604,836.08057,920.696,0.0,0.0,-0.3197021484375,0.071044921875,0.95086669921875,2.1832275390625,-4.613189697265625,0.456085205078125,384395.6043956044,104543516.48351648,49205860.8058608,67.158585,1.0,2.0,1.0,1.0,2.0,40.0,,0 days 00:00:00
2023-11-09 12:52:22.927,1.0089624,0.38103157,0.10557874,0.74479866,0.67904526,0.32287195,-0.28150994,0.5403207,0.5377874,0.50683683,0.2503719,0.6292205,0.6985356,-0.1298073,-0.13615397,0.5919062,0.19585502,-0.52775383,-0.40935522,0.3524603,821.978,830.84247,817.5458,819.15753,723.663,0.0,0.0,-0.3197021484375,0.071044921875,0.95086669921875,2.1832275390625,-4.613189697265625,0.456085205078125,384395.6043956044,104543516.48351648,49205860.8058608,67.158585,1.0,2.0,1.0,1.0,2.0,40.0,,0 days 00:00:00.001000
2023-11-09 12:52:22.927,1.0089624,0.38103157,0.10557874,0.74479866,0.67904526,0.32287195,-0.28150994,0.5403207,0.5377874,0.50683683,0.2503719,0.6292205,0.6985356,-0.1298073,-0.13615397,0.5919062,0.19585502,-0.52775383,-0.40935522,0.3524603,799.81683,828.4249,811.9048,807.8755,721.2454,0.0,0.0,-0.3197021484375,0.071044921875,0.95086669921875,2.1832275390625,-4.613189697265625,0.456085205078125,384395.6043956044,104543516.48351648,49205860.8058608,67.158585,1.0,2.0,1.0,1.0,2.0,40.0,,0 days 00:00:00
2023-11-09 12:52:22.963,1.0089624,0.38103157,0.10557874,0.74479866,0.67904526,0.32287195,-0.28150994,0.5403207,0.5377874,0.50683683,0.2503719,0.6292205,0.6985356,-0.1298073,-0.13615397,0.5919062,0.19585502,-0.52775383,-0.40935522,0.3524603,801.4286,830.84247,814.3223,813.1135,632.1978,0.0,0.0,-0.31634521484375,0.0726318359375,0.961181640625,2.7215576171875,-6.89361572265625,-0.04486083984375,384395.6043956044,104543516.48351648,49205860.8058608,67.158585,1.0,2.0,1.0,1.0,2.0,40.0,,0 days 00:00:00.036000
2023-11-09 12:52:22.964,1.0089624,0.38103157,0.10557874,0.74479866,0.67904526,0.32287195,-0.28150994,0.5403207,0.5377874,0.50683683,0.2503719,0.6292205,0.6985356,-0.1298073,-0.13615397,0.5919062,0.19585502,-0.52775383,-0.40935522,0.3524603,830.84247,833.2601,817.1429,832.4542,645.4945,0.0,0.0,-0.31634521484375,0.0726318359375,0.961181640625,2.7215576171875,-6.89361572265625,-0.04486083984375,384395.6043956044,104543516.48351648,49205860.8058608,67.158585,1.0,2.0,1.0,1.0,2.0,40.0,,0 days 00:00:00.001000
2023-11-09 12:52:22.965,1.0089624,0.38103157,0.10557874,0.74479866,0.67904526,0.32287195,-0.28150994,0.5403207,0.5377874,0.50683683,0.2503719,0.6292205,0.6985356,-0.1298073,-0.13615397,0.5919062,0.19585502,-0.52775383,-0.40935522,0.3524603,817.1429,834.0659,817.1429,824.3956,730.10986,0.0,0.0,-0.31634521484375,0.0726318359375,0.961181640625,2.7215576171875,-6.89361572265625,-0.04486083984375,384395.6043956044,104543516.48351648,49205860.8058608,67.158585,1.0,2.0,1.0,1.0,2.0,40.0,,0 days 00:00:00.001000
2023-11-09 12:52:22.965,1.0089624,0.38103157,0.10557874,0.74479866,0.67904526,0.32287195,-0.28150994,0.5403207,0.5377874,0.50683683,0.2503719,0.6292205,0.6985356,-0.1298073,-0.13615397,0.5919062,0.19585502,-0.52775383,-0.40935522,0.3524603,780.4762,830.84247,818.7546,801.4286,762.3443,0.0,0.0,-0.31634521484375,0.0726318359375,0.961181640625,2.7215576171875,-6.89361572265625,-0.04486083984375,384395.6043956044,104543516.48351648,49205860.8058608,67.158585,1.0,2.0,1.0,1.0,2.0,40.0,,0 days 00:00:00
2023-11-09 12:52:22.966,1.0089624,0.38103157,0.10557874,0.74479866,0.67904526,0.32287195,-0.28150994,0.5403207,0.5377874,0.50683683,0.2503719,0.6292205,0.6985356,-0.1298073,-0.13615397,0.5919062,0.19585502,-0.52775383,-0.40935522,0.3524603,792.1612,830.84247,819.9634,807.8755,765.9707,0.0,0.0,-0.31634521484375,0.0726318359375,0.961181640625,2.7215576171875,-6.89361572265625,-0.04486083984375,384395.6043956044,104543516.48351648,49205860.8058608,67.158585,1.0,2.0,1.0,1.0,2.0,40.0,,0 days 00:00:00.001000
2023-11-09 12:52:22.966,1.0089624,0.38103157,0.10557874,0.74479866,0.67904526,0.32287195,-0.28150994,0.5403207,0.5377874,0.50683683,0.2503719,0.6292205,0.6985356,-0.1298073,-0.13615397,0.5919062,0.19585502,-0.52775383,-0.40935522,0.3524603,830.0366,829.2308,819.9634,830.84247,826.4103,0.0,0.0,-0.31634521484375,0.0726318359375,0.961181640625,2.7215576171875,-6.89361572265625,-0.04486083984375,384395.6043956044,104543516.48351648,49205860.8058608,67.158585,1.0,2.0,1.0,1.0,2.0,40.0,,0 days 00:00:00
2023-11-09 12:52:22.967,1.0089624,0.38103157,0.10557874,0.74479866,0.67904526,0.32287195,-0.28150994,0.5403207,0.5377874,0.50683683,0.2503719,0.6292205,0.6985356,-0.1298073,-0.13615397,0.5919062,0.19585502,-0.52775383,-0.40935522,0.3524603,826.0073,824.7985,819.5604,830.4396,959.3773,0.0,0.0,-0.31634521484375,0.0726318359375,0.961181640625,2.7215576171875,-6.89361572265625,-0.04486083984375,384395.6043956044,104543516.48351648,49205860.8058608,67.158585,1.0,2.0,1.0,1.0,2.0,40.0,,0 days 00:00:00.001000
2023-11-09 12:52:22.967,1.0089624,0.38103157,0.10557874,0.74479866,0.67904526,0.32287195,-0.28150994,0.5403207,0.5377874,0.50683683,0.2503719,0.6292205,0.6985356,-0.1298073,-0.13615397,0.5919062,0.19585502,-0.52775383,-0.40935522,0.3524603,789.34064,823.9927,817.9487,803.8461,960.989,0.0,0.0,-0.31634521484375,0.0726318359375,0.961181640625,2.7215576171875,-6.89361572265625,-0.04486083984375,384395.6043956044,104543516.48351648,49205860.8058608,67.158585,1.0,2.0,1.0,1.0,2.0,40.0,,0 days 00:00:00
2023-11-09 12:52:22.968,1.0089624,0.38103157,0.10557874,0.74479866,0.67904526,0.32287195,-0.28150994,0.5403207,0.5377874,0.50683683,0.2503719,0.6292205,0.6985356,-0.1298073,-0.13615397,0.5919062,0.19585502,-0.52775383,-0.40935522,0.3524603,782.8938,829.6337,817.5458,786.9231,740.18317,0.0,0.0,-0.31634521484375,0.0726318359375,0.961181640625,2.7215576171875,-6.89361572265625,-0.04486083984375,384395.6043956044,104543516.48351648,49205860.8058608,67.158585,1.0,2.0,1.0,1.0,2.0,40.0,,0 days 00:00:00.001000
2023-11-09 12:52:22.968,1.0089624,0.38103157,0.10557874,0.74479866,0.67904526,0.32287195,-0.28150994,0.5403207,0.5377874,0.50683683,0.2503719,0.6292205,0.6985356,-0.1298073,-0.13615397,0.5919062,0.19585502,-0.52775383,-0.40935522,0.3524603,817.5458,825.6044,818.7546,813.5165,733.73627,0.0,0.0,-0.31634521484375,0.0726318359375,0.961181640625,2.7215576171875,-6.89361572265625,-0.04486083984375,384395.6043956044,104543516.48351648,49205860.8058608,67.158585,1.0,2.0,1.0,1.0,2.0,40.0,,0 days 00:00:00
2023-11-09 12:52:22.969,1.0089624,0.38103157,0.10557874,0.74479866,0.67904526,0.32287195,-0.28150994,0.5403207,0.5377874,0.50683683,0.2503719,0.6292205,0.6985356,-0.1298073,-0.13615397,0.5919062,0.19585502,-0.52775383,-0.40935522,0.3524603,827.2161,824.7985,819.15753,821.5751,826.8132,0.0,0.0,-0.31634521484375,0.0726318359375,0.961181640625,2.7215576171875,-6.89361572265625,-0.04486083984375,384395.6043956044,104543516.48351648,49205860.8058608,67.158585,1.0,2.0,1.0,1.0,2.0,40.0,,0 days 00:00:00.001000
2023-11-09 12:52:22.969,1.0089624,0.38103157,0.10557874,0.74479866,0.67904526,0.32287195,-0.28150994,0.5403207,0.5377874,0.50683683,0.2503719,0.6292205,0.6985356,-0.1298073,-0.13615397,0.5919062,0.19585502,-0.52775383,-0.40935522,0.3524603,794.57874,831.2454,816.7399,791.3553,803.8461,0.0,0.0,-0.31634521484375,0.0726318359375,0.961181640625,2.7215576171875,-6.89361572265625,-0.04486083984375,384395.6043956044,104543516.48351648,49205860.8058608,67.158585,1.0,2.0,1.0,1.0,2.0,40.0,,0 days 00:00:00
2023-11-09 12:52:22.996,1.0089624,0.38103157,0.10557874,0.74479866,0.67904526,0.32287195,-0.28150994,0.5403207,0.5377874,0.50683683,0.2503719,0.6292205,0.6985356,-0.1298073,-0.13615397,0.5919062,0.19585502,-0.52775383,-0.40935522,0.3524603,786.1172,830.0366,816.337,780.07324,727.28937,0.0,0.0,-0.312255859375,0.067626953125,0.958251953125,1.71966552734375,-7.484283447265625,-2.056121826171875,383589.7435897435,104562857.14285712,49170402.93040293,67.158585,1.0,2.0,1.0,1.0,2.0,40.0,,0 days 00:00:00.027000
2023-11-09 12:52:22.997,1.0089624,0.38103157,0.10557874,0.74479866,0.67904526,0.32287195,-0.28150994,0.5403207,0.5377874,0.50683683,0.2503719,0.6292205,0.6985356,-0.1298073,-0.13615397,0.5919062,0.19585502,-0.52775383,-0.40935522,0.3524603,809.0842,823.1868,816.337,796.99634,703.5165,0.0,0.0,-0.312255859375,0.067626953125,0.958251953125,1.71966552734375,-7.484283447265625,-2.056121826171875,383589.7435897435,104562857.14285712,49170402.93040293,67.158585,1.0,2.0,1.0,1.0,2.0,40.0,,0 days 00:00:00.001000
2023-11-09 12:52:22.998,1.0089624,0.38103157,0.10557874,0.74479866,0.67904526,0.32287195,-0.28150994,0.5403207,0.5377874,0.50683683,0.2503719,0.6292205,0.6985356,-0.1298073,-0.13615397,0.5919062,0.19585502,-0.52775383,-0.40935522,0.3524603,819.9634,820.3663,813.5165,809.89014,798.60803,0.0,0.0,-0.312255859375,0.067626953125,0.958251953125,1.71966552734375,-7.484283447265625,-2.056121826171875,383589.7435897435,104562857.14285712,49170402.93040293,67.158585,1.0,2.0,1.0,1.0,2.0,40.0,,0 days 00:00:00.001000
2023-11-09 12:52:22.999,1.0089624,0.38103157,0.10557874,0.74479866,0.67904526,0.32287195,-0.28150994,0.5403207,0.5377874,0.50683683,0.2503719,0.6292205,0.6985356,-0.1298073,-0.13615397,0.5919062,0.19585502,-0.52775383,-0.40935522,0.3524603,793.36993,826.8132,811.9048,788.93774,800.6227,0.0,0.0,-0.312255859375,0.067626953125,0.958251953125,1.71966552734375,-7.484283447265625,-2.056121826171875,383589.7435897435,104562857.14285712,49170402.93040293,67.158585,1.0,2.0,1.0,1.0,2.0,40.0,,0 days 00:00:00.001000
2023-11-09 12:52:22.999,1.0089624,0.38103157,0.10557874,0.74479866,0.67904526,0.32287195,-0.28150994,0.5403207,0.5377874,0.50683683,0.2503719,0.6292205,0.6985356,-0.1298073,-0.13615397,0.5919062,0.19585502,-0.52775383,-0.40935522,0.3524603,768.3883,829.6337,815.9341,770.80585,683.36993,0.0,0.0,-0.312255859375,0.067626953125,0.958251953125,1.71966552734375,-7.484283447265625,-2.056121826171875,383589.7435897435,104562857.14285712,49170402.93040293,67.158585,1.0,2.0,1.0,1.0,2.0,40.0,,0 days 00:00:00
2023-11-09 12:52:23.000,1.0089624,0.38421914,0.1438886,0.74479866,0.67904526,0.3241966,-0.2616523,0.5403207,0.5377874,0.50683683,0.24023084,0.6292205,0.6985356,-0.14149074,-0.13761641,0.5919062,0.19585502,-0.52270913,-0.41126198,0.3524603,788.93774,824.7985,819.5604,792.96704,689.81683,0.0,0.0,-0.312255859375,0.067626953125,0.958251953125,1.71966552734375,-7.484283447265625,-2.056121826171875,383589.7435897435,104562857.14285712,49170402.93040293,67.158585,1.0,2.0,1.0,1.0,2.0,40.0,,0 days 00:00:00.001000
2023-11-09 12:52:23.003,1.0089624,0.38421914,0.1438886,0.74479866,0.67904526,0.3241966,-0.2616523,0.5403207,0.5377874,0.50683683,0.24023084,0.6292205,0.6985356,-0.14149074,-0.13761641,0.5919062,0.19585502,-0.52270913,-0.41126198,0.3524603,826.8132,818.7546,813.5165,818.3516,977.1062,0.0,0.0,-0.312255859375,0.067626953125,0.958251953125,1.71966552734375,-7.484283447265625,-2.056121826171875,383589.7435897435,104562857.14285712,49170402.93040293,67.158585,1.0,2.0,1.0,1.0,2.0,40.0,,0 days 00:00:00.003000
2023-11-09 12:52:23.004,1.0089624,0.38421914,0.1438886,0.74479866,0.67904526,0.3241966,-0.2616523,0.5403207,0.5377874,0.50683683,0.24023084,0.6292205,0.6985356,-0.14149074,-0.13761641,0.5919062,0.19585502,-0.52270913,-0.41126198,0.3524603,807.0696,819.9634,813.1135,801.4286,985.56775,0.0,0.0,-0.312255859375,0.067626953125,0.958251953125,1.71966552734375,-7.484283447265625,-2.056121826171875,383589.7435897435,104562857.14285712,49170402.93040293,67.158585,1.0,2.0,1.0,1.0,2.0,40.0,,0 days 00:00:00.001000
2023-11-09 12:52:23.004,1.0089624,0.38421914,0.1438886,0.74479866,0.67904526,0.3241966,-0.2616523,0.5403207,0.5377874,0.50683683,0.24023084,0.6292205,0.6985356,-0.14149074,-0.13761641,0.5919062,0.19585502,-0.52270913,-0.41126198,0.3524603,780.4762,826.4103,818.3516,765.56775,654.7619,0.0,0.0,-0.312255859375,0.067626953125,0.958251953125,1.71966552734375,-7.484283447265625,-2.056121826171875,383589.7435897435,104562857.14285712,49170402.93040293,67.158585,1.0,2.0,1.0,1.0,2.0,40.0,,0 days 00:00:00
2023-11-09 12:52:23.005,1.0089624,0.38421914,0.1438886,0.74479866,0.67904526,0.3241966,-0.2616523,0.5403207,0.5377874,0.50683683,0.24023084,0.6292205,0.6985356,-0.14149074,-0.13761641,0.5919062,0.19585502,-0.52270913,-0.41126198,0.3524603,795.38464,825.2015,818.3516,770.0,678.1319,0.0,0.0,-0.312255859375,0.067626953125,0.958251953125,1.71966552734375,-7.484283447265625,-2.056121826171875,383589.7435897435,104562857.14285712,49170402.93040293,67.158585,1.0,2.0,1.0,1.0,2.0,40.0,,0 days 00:00:00.001000
2023-11-09 12:52:23.006,1.0089624,0.38421914,0.1438886,0.74479866,0.67904526,0.3241966,-0.2616523,0.5403207,0.5377874,0.50683683,0.24023084,0.6292205,0.6985356,-0.14149074,-0.13761641,0.5919062,0.19585502,-0.52270913,-0.41126198,0.3524603,813.1135,822.7839,819.15753,802.6374,851.39197,0.0,0.0,-0.312255859375,0.067626953125,0.958251953125,1.71966552734375,-7.484283447265625,-2.056121826171875,383589.7435897435,104562857.14285712,49170402.93040293,67.158585,1.0,2.0,1.0,1.0,2.0,40.0,,0 days 00:00:00.001000
2023-11-09 12:52:23.006,1.0089624,0.38421914,0.1438886,0.74479866,0.67904526,0.3241966,-0.2616523,0.5403207,0.5377874,0.50683683,0.24023084,0.6292205,0.6985356,-0.14149074,-0.13761641,0.5919062,0.19585502,-0.52270913,-0.41126198,0.3524603,815.12823,823.9927,817.1429,797.3993,778.0586,0.0,0.0,-0.312255859375,0.067626953125,0.958251953125,1.71966552734375,-7.484283447265625,-2.056121826171875,383589.7435897435,104562857.14285712,49170402.93040293,67.158585,1.0,2.0,1.0,1.0,2.0,40.0,,0 days 00:00:00
2023-11-09 12:52:23.076,1.0089624,0.38421914,0.1438886,0.74479866,0.67904526,0.3241966,-0.2616523,0.5403207,0.5377874,0.50683683,0.24023084,0.6292205,0.6985356,-0.14149074,-0.13761641,0.5919062,0.19585502,-0.52270913,-0.41126198,0.3524603,784.90845,822.7839,812.71063,765.9707,663.6264,0.0,0.0,-0.312255859375,0.067626953125,0.958251953125,1.71966552734375,-7.484283447265625,-2.056121826171875,383589.7435897435,104562857.14285712,49170402.93040293,67.158585,1.0,2.0,1.0,1.0,2.0,40.0,,0 days 00:00:00.070000
2023-11-09 12:52:23.077,1.0089624,0.38421914,0.1438886,0.74479866,0.67904526,0.3241966,-0.2616523,0.5403207,0.5377874,0.50683683,0.24023084,0.6292205,0.6985356,-0.14149074,-0.13761641,0.5919062,0.19585502,-0.52270913,-0.41126198,0.3524603,779.2674,818.3516,809.4872,767.1795,743.4066,0.0,0.0,-0.312255859375,0.067626953125,0.958251953125,1.71966552734375,-7.484283447265625,-2.056121826171875,383589.7435897435,104562857.14285712,49170402.93040293,67.158585,1.0,2.0,1.0,1.0,2.0,40.0,,0 days 00:00:00.001000
2023-11-09 12:52:23.078,1.0089624,0.38421914,0.1438886,0.74479866,0.67904526,0.3241966,-0.2616523,0.5403207,0.5377874,0.50683683,0.24023084,0.6292205,0.6985356,-0.14149074,-0.13761641,0.5919062,0.19585502,-0.52270913,-0.41126198,0.3524603,808.2784,816.7399,812.71063,796.99634,797.3993,0.0,0.0,-0.312255859375,0.067626953125,0.958251953125,1.71966552734375,-7.484283447265625,-2.056121826171875,383589.7435897435,104562857.14285712,49170402.93040293,67.158585,1.0,2.0,1.0,1.0,2.0,40.0,,0 days 00:00:00.001000
2023-11-09 12:52:23.078,1.0089624,0.38421914,0.1438886,0.74479866,0.67904526,0.3241966,-0.2616523,0.5403207,0.5377874,0.50683683,0.24023084,0.6292205,0.6985356,-0.14149074,-0.13761641,0.5919062,0.19585502,-0.52270913,-0.41126198,0.3524603,813.5165,820.7692,817.1429,802.23444,727.28937,0.0,0.0,-0.312255859375,0.067626953125,0.958251953125,1.71966552734375,-7.484283447265625,-2.056121826171875,383589.7435897435,104562857.14285712,49170402.93040293,67.158585,1.0,2.0,1.0,1.0,2.0,40.0,,0 days 00:00:00
2023-11-09 12:52:23.079,1.0089624,0.38421914,0.1438886,0.74479866,0.67904526,0.3241966,-0.2616523,0.5403207,0.5377874,0.50683683,0.24023084,0.6292205,0.6985356,-0.14149074,-0.13761641,0.5919062,0.19585502,-0.52270913,-0.41126198,0.3524603,792.5641,823.1868,819.9634,780.07324,650.7326,0.0,0.0,-0.312255859375,0.067626953125,0.958251953125,1.71966552734375,-7.484283447265625,-2.056121826171875,383589.7435897435,104562857.14285712,49170402.93040293,67.158585,1.0,2.0,1.0,1.0,2.0,40.0,,0 days 00:00:00.001000
2023-11-09 12:52:23.079,1.0089624,0.38421914,0.1438886,0.74479866,0.67904526,0.3241966,-0.2616523,0.5403207,0.5377874,0.50683683,0.24023084,0.6292205,0.6985356,-0.14149074,-0.13761641,0.5919062,0.19585502,-0.52270913,-0.41126198,0.3524603,785.31134,811.50183,816.7399,777.25275,781.28204,0.0,0.0,-0.312255859375,0.067626953125,0.958251953125,1.71966552734375,-7.484283447265625,-2.056121826171875,383589.7435897435,104562857.14285712,49170402.93040293,67.158585,1.0,2.0,1.0,1.0,2.0,40.0,,0 days 00:00:00
2023-11-09 12:52:23.079,1.0089624,0.38421914,0.1438886,0.74479866,0.67904526,0.3241966,-0.2616523,0.5403207,0.5377874,0.50683683,0.24023084,0.6292205,0.6985356,-0.14149074,-0.13761641,0.5919062,0.19585502,-0.52270913,-0.41126198,0.3524603,805.4579,811.0989,821.1722,799.011,1012.1612,0.0,0.0,-0.312255859375,0.067626953125,0.958251953125,1.71966552734375,-7.484283447265625,-2.056121826171875,383589.7435897435,104562857.14285712,49170402.93040293,67.158585,1.0,2.0,1.0,1.0,2.0,40.0,,0 days 00:00:00
2023-11-09 12:52:23.080,1.0089624,0.38421914,0.1438886,0.74479866,0.67904526,0.3241966,-0.2616523,0.5403207,0.5377874,0.50683683,0.24023084,0.6292205,0.6985356,-0.14149074,-0.13761641,0.5919062,0.19585502,-0.52270913,-0.41126198,0.3524603,823.1868,828.8278,829.6337,796.5934,814.7253,0.0,0.0,-0.312255859375,0.067626953125,0.958251953125,1.71966552734375,-7.484283447265625,-2.056121826171875,383589.7435897435,104562857.14285712,49170402.93040293,67.158585,1.0,2.0,1.0,1.0,2.0,40.0,,0 days 00:00:00.001000
2023-11-09 12:52:23.080,1.0089624,0.38421914,0.1438886,0.74479866,0.67904526,0.3241966,-0.2616523,0.5403207,0.5377874,0.50683683,0.24023084,0.6292205,0.6985356,-0.14149074,-0.13761641,0.5919062,0.19585502,-0.52270913,-0.41126198,0.3524603,801.02563,827.2161,825.2015,778.0586,645.89746,0.0,0.0,-0.312255859375,0.067626953125,0.958251953125,1.71966552734375,-7.484283447265625,-2.056121826171875,383589.7435897435,104562857.14285712,49170402.93040293,67.158585,1.0,2.0,1.0,1.0,2.0,40.0,,0 days 00:00:00
2023-11-09 12:52:23.081,1.0089624,0.38421914,0.1438886,0.74479866,0.67904526,0.3241966,-0.2616523,0.5403207,0.5377874,0.50683683,0.24023084,0.6292205,0.6985356,-0.14149074,-0.13761641,0.5919062,0.19585502,-0.52270913,-0.41126198,0.3524603,778.86444,817.9487,825.2015,780.87915,722.0513,0.0,0.0,-0.312255859375,0.067626953125,0.958251953125,1.71966552734375,-7.484283447265625,-2.056121826171875,383589.7435897435,104562857.14285712,49170402.93040293,67.158585,1.0,2.0,1.0,1.0,2.0,40.0,,0 days 00:00:00.001000
2023-11-09 12:52:23.081,1.0089624,0.38421914,0.1438886,0.74479866,0.67904526,0.3241966,-0.2616523,0.5403207,0.5377874,0.50683683,0.24023084,0.6292205,0.6985356,-0.14149074,-0.13761641,0.5919062,0.19585502,-0.52270913,-0.41126198,0.3524603,802.6374,821.5751,829.6337,804.2491,703.1135,0.0,0.0,-0.312255859375,0.067626953125,0.958251953125,1.71966552734375,-7.484283447265625,-2.056121826171875,383589.7435897435,104562857.14285712,49170402.93040293,67.158585,1.0,2.0,1.0,1.0,2.0,40.0,,0 days 00:00:00
2023-11-09 12:52:23.082,1.0089624,0.38421914,0.1438886,0.74479866,0.67904526,0.3241966,-0.2616523,0.5403207,0.5377874,0.50683683,0.24023084,0.6292205,0.6985356,-0.14149074,-0.13761641,0.5919062,0.19585502,-0.52270913,-0.41126198,0.3524603,830.4396,827.2161,827.619,812.3077,672.49084,0.0,0.0,-0.312255859375,0.067626953125,0.958251953125,1.71966552734375,-7.484283447265625,-2.056121826171875,383589.7435897435,104562857.14285712,49170402.93040293,67.158585,1.0,2.0,1.0,1.0,2.0,40.0,,0 days 00:00:00.001000
2023-11-09 12:52:23.107,1.0089624,0.38421914,0.1438886,0.74479866,0.67904526,0.3241966,-0.2616523,0.5403207,0.5377874,0.50683683,0.24023084,0.6292205,0.6985356,-0.14149074,-0.13761641,0.5919062,0.19585502,-0.52270913,-0.41126198,0.3524603,819.15753,827.619,824.7985,803.8461,758.315,0.0,0.0,-0.300537109375,0.06549072265625,0.95550537109375,2.624359130859375,-4.9346923828125,-1.68975830078125,383589.7435897435,104426666.66666666,49047912.08791209,67.158585,1.0,2.0,1.0,1.0,2.0,40.0,,0 days 00:00:00.025000
2023-11-09 12:52:23.107,1.0089624,0.38421914,0.1438886,0.74479866,0.67904526,0.3241966,-0.2616523,0.5403207,0.5377874,0.50683683,0.24023084,0.6292205,0.6985356,-0.14149074,-0.13761641,0.5919062,0.19585502,-0.52270913,-0.41126198,0.3524603,785.7143,824.3956,828.022,795.38464,713.5897,0.0,0.0,-0.300537109375,0.06549072265625,0.95550537109375,2.624359130859375,-4.9346923828125,-1.68975830078125,383589.7435897435,104426666.66666666,49047912.08791209,67.158585,1.0,2.0,1.0,1.0,2.0,40.0,,0 days 00:00:00
2023-11-09 12:52:23.108,1.0089624,0.38421914,0.1438886,0.74479866,0.67904526,0.3241966,-0.2616523,0.5403207,0.5377874,0.50683683,0.24023084,0.6292205,0.6985356,-0.14149074,-0.13761641,0.5919062,0.19585502,-0.52270913,-0.41126198,0.3524603,788.1319,823.9927,829.2308,790.54944,655.9707,0.0,0.0,-0.300537109375,0.06549072265625,0.95550537109375,2.624359130859375,-4.9346923828125,-1.68975830078125,383589.7435897435,104426666.66666666,49047912.08791209,67.158585,1.0,2.0,1.0,1.0,2.0,40.0,,0 days 00:00:00.001000
2023-11-09 12:52:23.108,1.0089624,0.38421914,0.1438886,0.74479866,0.67904526,0.3241966,-0.2616523,0.5403207,0.5377874,0.50683683,0.24023084,0.6292205,0.6985356,-0.14149074,-0.13761641,0.5919062,0.19585502,-0.52270913,-0.41126198,0.3524603,827.2161,825.2015,829.2308,805.8608,718.022,0.0,0.0,-0.300537109375,0.06549072265625,0.95550537109375,2.624359130859375,-4.9346923828125,-1.68975830078125,383589.7435897435,104426666.66666666,49047912.08791209,67.158585,1.0,2.0,1.0,1.0,2.0,40.0,,0 days 00:00:00
2023-11-09 12:52:23.108,1.0089624,0.38421914,0.1438886,0.74479866,0.67904526,0.3241966,-0.2616523,0.5403207,0.5377874,0.50683683,0.24023084,0.6292205,0.6985356,-0.14149074,-0.13761641,0.5919062,0.19585502,-0.52270913,-0.41126198,0.3524603,819.5604,824.7985,828.4249,814.3223,726.8865,0.0,0.0,-0.300537109375,0.06549072265625,0.95550537109375,2.624359130859375,-4.9346923828125,-1.68975830078125,383589.7435897435,104426666.66666666,49047912.08791209,67.158585,1.0,2.0,1.0,1.0,2.0,40.0,,0 days 00:00:00
2023-11-09 12:52:23.109,1.0089624,0.38421914,0.1438886,0.74479866,0.67904526,0.3241966,-0.2616523,0.5403207,0.5377874,0.50683683,0.24023084,0.6292205,0.6985356,-0.14149074,-0.13761641,0.5919062,0.19585502,-0.52270913,-0.41126198,0.3524603,780.4762,821.1722,821.978,789.34064,722.8571,0.0,0.0,-0.300537109375,0.06549072265625,0.95550537109375,2.624359130859375,-4.9346923828125,-1.68975830078125,383589.7435897435,104426666.66666666,49047912.08791209,67.158585,1.0,2.0,1.0,1.0,2.0,40.0,,0 days 00:00:00.001000
2023-11-09 12:52:23.109,1.0089624,0.38421914,0.1438886,0.74479866,0.67904526,0.3241966,-0.2616523,0.5403207,0.5377874,0.50683683,0.24023084,0.6292205,0.6985356,-0.14149074,-0.13761641,0.5919062,0.19585502,-0.52270913,-0.41126198,0.3524603,786.1172,825.6044,823.5897,784.10254,768.7912,0.0,0.0,-0.300537109375,0.06549072265625,0.95550537109375,2.624359130859375,-4.9346923828125,-1.68975830078125,383589.7435897435,104426666.66666666,49047912.08791209,67.158585,1.0,2.0,1.0,1.0,2.0,40.0,,0 days 00:00:00
2023-11-09 12:52:23.109,1.0089624,0.38600555,0.1651889,0.74479866,0.67904526,0.32396406,-0.25159743,0.5403207,0.5377874,0.50683683,0.24023084,0.6292205,0.6985356,-0.15391359,-0.13799307,0.5919062,0.19585502,-0.5176778,-0.41251034,0.3524603,825.2015,828.4249,824.3956,811.50183,794.57874,0.0,0.0,-0.300537109375,0.06549072265625,0.95550537109375,2.624359130859375,-4.9346923828125,-1.68975830078125,383589.7435897435,104426666.66666666,49047912.08791209,67.158585,1.0,2.0,1.0,1.0,2.0,40.0,,0 days 00:00:00
2023-11-09 12:52:23.111,1.0089624,0.38600555,0.1651889,0.74479866,0.67904526,0.32396406,-0.25159743,0.5403207,0.5377874,0.50683683,0.24023084,0.6292205,0.6985356,-0.15391359,-0.13799307,0.5919062,0.19585502,-0.5176778,-0.41251034,0.3524603,834.4689,825.6044,826.0073,824.7985,807.8755,0.0,0.0,-0.300537109375,0.06549072265625,0.95550537109375,2.624359130859375,-4.9346923828125,-1.68975830078125,383589.7435897435,104426666.66666666,49047912.08791209,67.158585,1.0,2.0,1.0,1.0,2.0,40.0,,0 days 00:00:00.002000
2023-11-09 12:52:23.111,1.0089624,0.38600555,0.1651889,0.74479866,0.67904526,0.32396406,-0.25159743,0.5403207,0.5377874,0.50683683,0.24023084,0.6292205,0.6985356,-0.15391359,-0.13799307,0.5919062,0.19585502,-0.5176778,-0.41251034,0.3524603,793.36993,817.5458,825.2015,807.47253,888.0586,0.0,0.0,-0.300537109375,0.06549072265625,0.95550537109375,2.624359130859375,-4.9346923828125,-1.68975830078125,383589.7435897435,104426666.66666666,49047912.08791209,67.158585,1.0,2.0,1.0,1.0,2.0,40.0,,0 days 00:00:00
2023-11-09 12:52:23.112,1.0089624,0.38600555,0.1651889,0.74479866,0.67904526,0.32396406,-0.25159743,0.5403207,0.5377874,0.50683683,0.24023084,0.6292205,0.6985356,-0.15391359,-0.13799307,0.5919062,0.19585502,-0.5176778,-0.41251034,0.3524603,774.0293,820.3663,823.5897,789.34064,829.2308,0.0,0.0,-0.300537109375,0.06549072265625,0.95550537109375,2.624359130859375,-4.9346923828125,-1.68975830078125,383589.7435897435,104426666.66666666,49047912.08791209,67.158585,1.0,2.0,1.0,1.0,2.0,40.0,,0 days 00:00:00.001000
2023-11-09 12:52:23.112,1.0089624,0.38600555,0.1651889,0.74479866,0.67904526,0.32396406,-0.25159743,0.5403207,0.5377874,0.50683683,0.24023084,0.6292205,0.6985356,-0.15391359,-0.13799307,0.5919062,0.19585502,-0.5176778,-0.41251034,0.3524603,800.2198,830.4396,828.022,806.26373,677.72894,0.0,0.0,-0.300537109375,0.06549072265625,0.95550537109375,2.624359130859375,-4.9346923828125,-1.68975830078125,383589.7435897435,104426666.66666666,49047912.08791209,67.158585,1.0,2.0,1.0,1.0,2.0,40.0,,0 days 00:00:00
2023-11-09 12:52:23.143,1.0089624,0.38600555,0.1651889,0.74479866,0.67904526,0.32396406,-0.25159743,0.5403207,0.5377874,0.50683683,0.24023084,0.6292205,0.6985356,-0.15391359,-0.13799307,0.5919062,0.19585502,-0.5176778,-0.41251034,0.3524603,818.7546,823.1868,824.3956,825.6044,743.8095,0.0,0.0,-0.30804443359375,0.06256103515625,0.96875,2.175750732421875,-4.149627685546875,-0.022430419921875,383589.7435897435,104426666.66666666,49047912.08791209,67.158585,1.0,2.0,1.0,1.0,2.0,40.0,,0 days 00:00:00.031000
2023-11-09 12:52:23.144,1.0089624,0.38600555,0.1651889,0.74479866,0.67904526,0.32396406,-0.25159743,0.5403207,0.5377874,0.50683683,0.24023084,0.6292205,0.6985356,-0.15391359,-0.13799307,0.5919062,0.19585502,-0.5176778,-0.41251034,0.3524603,797.3993,820.3663,815.12823,813.91943,957.76556,0.0,0.0,-0.30804443359375,0.06256103515625,0.96875,2.175750732421875,-4.149627685546875,-0.022430419921875,383589.7435897435,104426666.66666666,49047912.08791209,67.158585,1.0,2.0,1.0,1.0,2.0,40.0,,0 days 00:00:00.001000
2023-11-09 12:52:23.144,1.0089624,0.38600555,0.1651889,0.74479866,0.67904526,0.32396406,-0.25159743,0.5403207,0.5377874,0.50683683,0.24023084,0.6292205,0.6985356,-0.15391359,-0.13799307,0.5919062,0.19585502,-0.5176778,-0.41251034,0.3524603,778.46155,831.2454,815.12823,795.78754,859.45056,0.0,0.0,-0.30804443359375,0.06256103515625,0.96875,2.175750732421875,-4.149627685546875,-0.022430419921875,383589.7435897435,104426666.66666666,49047912.08791209,67.158585,1.0,2.0,1.0,1.0,2.0,40.0,,0 days 00:00:00
2023-11-09 12:52:23.145,1.0089624,0.38600555,0.1651889,0.74479866,0.67904526,0.32396406,-0.25159743,0.5403207,0.5377874,0.50683683,0.24023084,0.6292205,0.6985356,-0.15391359,-0.13799307,0.5919062,0.19585502,-0.5176778,-0.41251034,0.3524603,797.3993,835.2747,823.1868,801.8315,643.8828,0.0,0.0,-0.30804443359375,0.06256103515625,0.96875,2.175750732421875,-4.149627685546875,-0.022430419921875,383589.7435897435,104426666.66666666,49047912.08791209,67.158585,1.0,2.0,1.0,1.0,2.0,40.0,,0 days 00:00:00.001000
2023-11-09 12:52:23.145,1.0089624,0.38600555,0.1651889,0.74479866,0.67904526,0.32396406,-0.25159743,0.5403207,0.5377874,0.50683683,0.24023084,0.6292205,0.6985356,-0.15391359,-0.13799307,0.5919062,0.19585502,-0.5176778,-0.41251034,0.3524603,825.2015,828.4249,818.7546,821.978,765.16486,0.0,0.0,-0.30804443359375,0.06256103515625,0.96875,2.175750732421875,-4.149627685546875,-0.022430419921875,383589.7435897435,104426666.66666666,49047912.08791209,67.158585,1.0,2.0,1.0,1.0,2.0,40.0,,0 days 00:00:00
2023-11-09 12:52:23.145,1.0089624,0.38600555,0.1651889,0.74479866,0.67904526,0.32396406,-0.25159743,0.5403207,0.5377874,0.50683683,0.24023084,0.6292205,0.6985356,-0.15391359,-0.13799307,0.5919062,0.19585502,-0.5176778,-0.41251034,0.3524603,811.9048,817.9487,813.5165,809.0842,861.4652,0.0,0.0,-0.30804443359375,0.06256103515625,0.96875,2.175750732421875,-4.149627685546875,-0.022430419921875,383589.7435897435,104426666.66666666,49047912.08791209,67.158585,1.0,2.0,1.0,1.0,2.0,40.0,,0 days 00:00:00
2023-11-09 12:52:23.146,1.0089624,0.38600555,0.1651889,0.74479866,0.67904526,0.32396406,-0.25159743,0.5403207,0.5377874,0.50683683,0.24023084,0.6292205,0.6985356,-0.15391359,-0.13799307,0.5919062,0.19585502,-0.5176778,-0.41251034,0.3524603,780.87915,818.7546,817.5458,795.78754,763.5531,0.0,0.0,-0.30804443359375,0.06256103515625,0.96875,2.175750732421875,-4.149627685546875,-0.022430419921875,383589.7435897435,104426666.66666666,49047912.08791209,67.158585,1.0,2.0,1.0,1.0,2.0,40.0,,0 days 00:00:00.001000
2023-11-09 12:52:23.146,1.0089624,0.38600555,0.1651889,0.74479866,0.67904526,0.32396406,-0.25159743,0.5403207,0.5377874,0.50683683,0.24023084,0.6292205,0.6985356,-0.15391359,-0.13799307,0.5919062,0.19585502,-0.5176778,-0.41251034,0.3524603,788.93774,825.2015,821.978,806.26373,644.68866,0.0,0.0,-0.30804443359375,0.06256103515625,0.96875,2.175750732421875,-4.149627685546875,-0.022430419921875,383589.7435897435,104426666.66666666,49047912.08791209,67.158585,1.0,2.0,1.0,1.0,2.0,40.0,,0 days 00:00:00
2023-11-09 12:52:23.147,1.0089624,0.38600555,0.1651889,0.74479866,0.67904526,0.32396406,-0.25159743,0.5403207,0.5377874,0.50683683,0.24023084,0.6292205,0.6985356,-0.15391359,-0.13799307,0.5919062,0.19585502,-0.5176778,-0.41251034,0.3524603,819.15753,818.3516,817.9487,826.0073,843.3333,0.0,0.0,-0.30804443359375,0.06256103515625,0.96875,2.175750732421875,-4.149627685546875,-0.022430419921875,383589.7435897435,104426666.66666666,49047912.08791209,67.158585,1.0,2.0,1.0,1.0,2.0,40.0,,0 days 00:00:00.001000
2023-11-09 12:52:23.147,1.0089624,0.38600555,0.1651889,0.74479866,0.67904526,0.32396406,-0.25159743,0.5403207,0.5377874,0.50683683,0.24023084,0.6292205,0.6985356,-0.15391359,-0.13799307,0.5919062,0.19585502,-0.5176778,-0.41251034,0.3524603,821.5751,814.7253,817.5458,828.8278,1102.4176,0.0,0.0,-0.30804443359375,0.06256103515625,0.96875,2.175750732421875,-4.149627685546875,-0.022430419921875,383589.7435897435,104426666.66666666,49047912.08791209,67.158585,1.0,2.0,1.0,1.0,2.0,40.0,,0 days 00:00:00
2023-11-09 12:52:23.148,1.0089624,0.38600555,0.1651889,0.74479866,0.67904526,0.32396406,-0.25159743,0.5403207,0.5377874,0.50683683,0.24023084,0.6292205,0.6985356,-0.15391359,-0.13799307,0.5919062,0.19585502,-0.5176778,-0.41251034,0.3524603,794.9817,824.7985,821.978,801.02563,858.6447,0.0,0.0,-0.30804443359375,0.06256103515625,0.96875,2.175750732421875,-4.149627685546875,-0.022430419921875,383589.7435897435,104426666.66666666,49047912.08791209,67.158585,1.0,2.0,1.0,1.0,2.0,40.0,,0 days 00:00:00.001000
2023-11-09 12:52:23.148,1.0089624,0.38600555,0.1651889,0.74479866,0.67904526,0.32396406,-0.25159743,0.5403207,0.5377874,0.50683683,0.24023084,0.6292205,0.6985356,-0.15391359,-0.13799307,0.5919062,0.19585502,-0.5176778,-0.41251034,0.3524603,779.67035,822.7839,825.2015,794.17584,665.64105,0.0,0.0,-0.30804443359375,0.06256103515625,0.96875,2.175750732421875,-4.149627685546875,-0.022430419921875,383589.7435897435,104426666.66666666,49047912.08791209,67.158585,1.0,2.0,1.0,1.0,2.0,40.0,,0 days 00:00:00
2023-11-09 12:52:23.178,1.0089624,0.38600555,0.1651889,0.74479866,0.67904526,0.32396406,-0.25159743,0.5403207,0.5377874,0.50683683,0.24023084,0.6292205,0.6985356,-0.15391359,-0.13799307,0.5919062,0.19585502,-0.5176778,-0.41251034,0.3524603,802.23444,822.7839,831.6484,822.381,727.6923,0.0,0.0,-0.3165283203125,0.06451416015625,0.9591064453125,2.31781005859375,-2.91595458984375,0.321502685546875,382783.8827838828,104372673.992674,49060000.0,67.40022,1.0,2.0,1.0,1.0,2.0,40.0,,0 days 00:00:00.030000
2023-11-09 12:52:23.179,1.0089624,0.38600555,0.1651889,0.74479866,0.67904526,0.32396406,-0.25159743,0.5403207,0.5377874,0.50683683,0.24023084,0.6292205,0.6985356,-0.15391359,-0.13799307,0.5919062,0.19585502,-0.5176778,-0.41251034,0.3524603,824.3956,823.9927,830.0366,834.0659,792.1612,0.0,0.0,-0.3165283203125,0.06451416015625,0.9591064453125,2.31781005859375,-2.91595458984375,0.321502685546875,382783.8827838828,104372673.992674,49060000.0,67.40022,1.0,2.0,1.0,1.0,2.0,40.0,,0 days 00:00:00.001000
2023-11-09 12:52:23.179,1.0089624,0.38600555,0.1651889,0.74479866,0.67904526,0.32396406,-0.25159743,0.5403207,0.5377874,0.50683683,0.24023084,0.6292205,0.6985356,-0.15391359,-0.13799307,0.5919062,0.19585502,-0.5176778,-0.41251034,0.3524603,800.2198,822.7839,828.4249,812.3077,750.2564,0.0,0.0,-0.3165283203125,0.06451416015625,0.9591064453125,2.31781005859375,-2.91595458984375,0.321502685546875,382783.8827838828,104372673.992674,49060000.0,67.40022,1.0,2.0,1.0,1.0,2.0,40.0,,0 days 00:00:00
2023-11-09 12:52:23.180,1.0089624,0.38600555,0.1651889,0.74479866,0.67904526,0.32396406,-0.25159743,0.5403207,0.5377874,0.50683683,0.24023084,0.6292205,0.6985356,-0.15391359,-0.13799307,0.5919062,0.19585502,-0.5176778,-0.41251034,0.3524603,784.90845,823.1868,826.0073,802.23444,669.67035,0.0,0.0,-0.3165283203125,0.06451416015625,0.9591064453125,2.31781005859375,-2.91595458984375,0.321502685546875,382783.8827838828,104372673.992674,49060000.0,67.40022,1.0,2.0,1.0,1.0,2.0,40.0,,0 days 00:00:00.001000
2023-11-09 12:52:23.180,1.0089624,0.38600555,0.1651889,0.74479866,0.67904526,0.32396406,-0.25159743,0.5403207,0.5377874,0.50683683,0.24023084,0.6292205,0.6985356,-0.15391359,-0.13799307,0.5919062,0.19585502,-0.5176778,-0.41251034,0.3524603,803.44324,821.978,821.978,817.5458,711.1722,0.0,0.0,-0.3165283203125,0.06451416015625,0.9591064453125,2.31781005859375,-2.91595458984375,0.321502685546875,382783.8827838828,104372673.992674,49060000.0,67.40022,1.0,2.0,1.0,1.0,2.0,40.0,,0 days 00:00:00
2023-11-09 12:52:23.181,1.0089624,0.38600555,0.1651889,0.74479866,0.67904526,0.32396406,-0.25159743,0.5403207,0.5377874,0.50683683,0.24023084,0.6292205,0.6985356,-0.15391359,-0.13799307,0.5919062,0.19585502,-0.5176778,-0.41251034,0.3524603,821.1722,823.1868,825.2015,833.663,907.8022,0.0,0.0,-0.3165283203125,0.06451416015625,0.9591064453125,2.31781005859375,-2.91595458984375,0.321502685546875,382783.8827838828,104372673.992674,49060000.0,67.40022,1.0,2.0,1.0,1.0,2.0,40.0,,0 days 00:00:00.001000
2023-11-09 12:52:23.181,1.0089624,0.38600555,0.1651889,0.74479866,0.67904526,0.32396406,-0.25159743,0.5403207,0.5377874,0.50683683,0.24023084,0.6292205,0.6985356,-0.15391359,-0.13799307,0.5919062,0.19585502,-0.5176778,-0.41251034,0.3524603,804.65204,822.7839,819.5604,816.337,922.3077,0.0,0.0,-0.3165283203125,0.06451416015625,0.9591064453125,2.31781005859375,-2.91595458984375,0.321502685546875,382783.8827838828,104372673.992674,49060000.0,67.40022,1.0,2.0,1.0,1.0,2.0,40.0,,0 days 00:00:00
2023-11-09 12:52:23.182,1.0089624,0.38600555,0.1651889,0.74479866,0.67904526,0.32396406,-0.25159743,0.5403207,0.5377874,0.50683683,0.24023084,0.6292205,0.6985356,-0.15391359,-0.13799307,0.5919062,0.19585502,-0.5176778,-0.41251034,0.3524603,786.52014,821.5751,817.1429,799.81683,826.8132,0.0,0.0,-0.3165283203125,0.06451416015625,0.9591064453125,2.31781005859375,-2.91595458984375,0.321502685546875,382783.8827838828,104372673.992674,49060000.0,67.40022,1.0,2.0,1.0,1.0,2.0,40.0,,0 days 00:00:00.001000
2023-11-09 12:52:23.182,1.0089624,0.38600555,0.1651889,0.74479866,0.67904526,0.32396406,-0.25159743,0.5403207,0.5377874,0.50683683,0.24023084,0.6292205,0.6985356,-0.15391359,-0.13799307,0.5919062,0.19585502,-0.5176778,-0.41251034,0.3524603,804.2491,819.9634,816.337,806.26373,901.75824,0.0,0.0,-0.3165283203125,0.06451416015625,0.9591064453125,2.31781005859375,-2.91595458984375,0.321502685546875,382783.8827838828,104372673.992674,49060000.0,67.40022,1.0,2.0,1.0,1.0,2.0,40.0,,0 days 00:00:00
2023-11-09 12:52:23.183,1.0089624,0.38656422,0.17406544,0.74479866,0.67904526,0.32400712,-0.2478777,0.5403207,0.5377874,0.50683683,0.24023084,0.6292205,0.6985356,-0.16324754,-0.13497251,0.5919062,0.19585502,-0.5150632,-0.4134706,0.3524603,822.7839,820.3663,812.71063,823.5897,866.7033,0.0,0.0,-0.3165283203125,0.06451416015625,0.9591064453125,2.31781005859375,-2.91595458984375,0.321502685546875,382783.8827838828,104372673.992674,49060000.0,67.40022,1.0,2.0,1.0,1.0,2.0,40.0,,0 days 00:00:00.001000
2023-11-09 12:52:23.186,1.0089624,0.38656422,0.17406544,0.74479866,0.67904526,0.32400712,-0.2478777,0.5403207,0.5377874,0.50683683,0.24023084,0.6292205,0.6985356,-0.16324754,-0.13497251,0.5919062,0.19585502,-0.5150632,-0.4134706,0.3524603,811.0989,824.3956,820.7692,828.4249,760.7326,0.0,0.0,-0.3165283203125,0.06451416015625,0.9591064453125,2.31781005859375,-2.91595458984375,0.321502685546875,382783.8827838828,104372673.992674,49060000.0,67.40022,1.0,2.0,1.0,1.0,2.0,40.0,,0 days 00:00:00.003000
2023-11-09 12:52:23.187,1.0089624,0.38656422,0.17406544,0.74479866,0.67904526,0.32400712,-0.2478777,0.5403207,0.5377874,0.50683683,0.24023084,0.6292205,0.6985356,-0.16324754,-0.13497251,0.5919062,0.19585502,-0.5150632,-0.4134706,0.3524603,788.5348,830.0366,823.1868,818.7546,759.12085,0.0,0.0,-0.3165283203125,0.06451416015625,0.9591064453125,2.31781005859375,-2.91595458984375,0.321502685546875,382783.8827838828,104372673.992674,49060000.0,67.40022,1.0,2.0,1.0,1.0,2.0,40.0,,0 days 00:00:00.001000
2023-11-09 12:52:23.211,1.0089624,0.38656422,0.17406544,0.74479866,0.67904526,0.32400712,-0.2478777,0.5403207,0.5377874,0.50683683,0.24023084,0.6292205,0.6985356,-0.16324754,-0.13497251,0.5919062,0.19585502,-0.5150632,-0.4134706,0.3524603,784.90845,823.1868,815.5311,823.9927,979.12085,0.0,0.0,-0.32568359375,0.0589599609375,0.95892333984375,1.71966552734375,-2.295379638671875,-1.188812255859375,382783.8827838828,104372673.992674,49060000.0,67.40022,1.0,2.0,1.0,1.0,2.0,40.0,,0 days 00:00:00.024000
2023-11-09 12:52:23.212,1.0089624,0.38656422,0.17406544,0.74479866,0.67904526,0.32400712,-0.2478777,0.5403207,0.5377874,0.50683683,0.24023084,0.6292205,0.6985356,-0.16324754,-0.13497251,0.5919062,0.19585502,-0.5150632,-0.4134706,0.3524603,807.0696,823.9927,819.15753,839.304,1011.75824,0.0,0.0,-0.32568359375,0.0589599609375,0.95892333984375,1.71966552734375,-2.295379638671875,-1.188812255859375,382783.8827838828,104372673.992674,49060000.0,67.40022,1.0,2.0,1.0,1.0,2.0,40.0,,0 days 00:00:00.001000
2023-11-09 12:52:23.213,1.0089624,0.38656422,0.17406544,0.74479866,0.67904526,0.32400712,-0.2478777,0.5403207,0.5377874,0.50683683,0.24023084,0.6292205,0.6985356,-0.16324754,-0.13497251,0.5919062,0.19585502,-0.5150632,-0.4134706,0.3524603,826.0073,830.84247,824.7985,830.84247,795.38464,0.0,0.0,-0.32568359375,0.0589599609375,0.95892333984375,1.71966552734375,-2.295379638671875,-1.188812255859375,382783.8827838828,104372673.992674,49060000.0,67.40022,1.0,2.0,1.0,1.0,2.0,40.0,,0 days 00:00:00.001000
2023-11-09 12:52:23.213,1.0089624,0.38656422,0.17406544,0.74479866,0.67904526,0.32400712,-0.2478777,0.5403207,0.5377874,0.50683683,0.24023084,0.6292205,0.6985356,-0.16324754,-0.13497251,0.5919062,0.19585502,-0.5150632,-0.4134706,0.3524603,801.02563,827.2161,823.9927,803.8461,817.1429,0.0,0.0,-0.32568359375,0.0589599609375,0.95892333984375,1.71966552734375,-2.295379638671875,-1.188812255859375,382783.8827838828,104372673.992674,49060000.0,67.40022,1.0,2.0,1.0,1.0,2.0,40.0,,0 days 00:00:00
2023-11-09 12:52:23.214,1.0089624,0.38656422,0.17406544,0.74479866,0.67904526,0.32400712,-0.2478777,0.5403207,0.5377874,0.50683683,0.24023084,0.6292205,0.6985356,-0.16324754,-0.13497251,0.5919062,0.19585502,-0.5150632,-0.4134706,0.3524603,787.72894,828.022,823.1868,801.8315,794.9817,0.0,0.0,-0.32568359375,0.0589599609375,0.95892333984375,1.71966552734375,-2.295379638671875,-1.188812255859375,382783.8827838828,104372673.992674,49060000.0,67.40022,1.0,2.0,1.0,1.0,2.0,40.0,,0 days 00:00:00.001000
2023-11-09 12:52:23.214,1.0089624,0.38656422,0.17406544,0.74479866,0.67904526,0.32400712,-0.2478777,0.5403207,0.5377874,0.50683683,0.24023084,0.6292205,0.6985356,-0.16324754,-0.13497251,0.5919062,0.19585502,-0.5150632,-0.4134706,0.3524603,813.5165,824.7985,822.381,813.5165,764.7619,0.0,0.0,-0.32568359375,0.0589599609375,0.95892333984375,1.71966552734375,-2.295379638671875,-1.188812255859375,382783.8827838828,104372673.992674,49060000.0,67.40022,1.0,2.0,1.0,1.0,2.0,40.0,,0 days 00:00:00
2023-11-09 12:52:23.215,1.0089624,0.38656422,0.17406544,0.74479866,0.67904526,0.32400712,-0.2478777,0.5403207,0.5377874,0.50683683,0.24023084,0.6292205,0.6985356,-0.16324754,-0.13497251,0.5919062,0.19585502,-0.5150632,-0.4134706,0.3524603,817.1429,817.1429,821.978,820.3663,839.304,0.0,0.0,-0.32568359375,0.0589599609375,0.95892333984375,1.71966552734375,-2.295379638671875,-1.188812255859375,382783.8827838828,104372673.992674,49060000.0,67.40022,1.0,2.0,1.0,1.0,2.0,40.0,,0 days 00:00:00.001000
2023-11-09 12:52:23.215,1.0089624,0.38656422,0.17406544,0.74479866,0.67904526,0.32400712,-0.2478777,0.5403207,0.5377874,0.50683683,0.24023084,0.6292205,0.6985356,-0.16324754,-0.13497251,0.5919062,0.19585502,-0.5150632,-0.4134706,0.3524603,789.7436,815.12823,818.7546,810.696,929.15753,0.0,0.0,-0.32568359375,0.0589599609375,0.95892333984375,1.71966552734375,-2.295379638671875,-1.188812255859375,382783.8827838828,104372673.992674,49060000.0,67.40022,1.0,2.0,1.0,1.0,2.0,40.0,,0 days 00:00:00
2023-11-09 12:52:23.216,1.0089624,0.38656422,0.17406544,0.74479866,0.67904526,0.32400712,-0.2478777,0.5403207,0.5377874,0.50683683,0.24023084,0.6292205,0.6985356,-0.16324754,-0.13497251,0.5919062,0.19585502,-0.5150632,-0.4134706,0.3524603,771.2088,818.7546,816.337,800.6227,1014.17584,0.0,0.0,-0.32568359375,0.0589599609375,0.95892333984375,1.71966552734375,-2.295379638671875,-1.188812255859375,382783.8827838828,104372673.992674,49060000.0,67.40022,1.0,2.0,1.0,1.0,2.0,40.0,,0 days 00:00:00.001000
2023-11-09 12:52:23.216,1.0089624,0.38656422,0.17406544,0.74479866,0.67904526,0.32400712,-0.2478777,0.5403207,0.5377874,0.50683683,0.24023084,0.6292205,0.6985356,-0.16324754,-0.13497251,0.5919062,0.19585502,-0.5150632,-0.4134706,0.3524603,784.5055,823.9927,823.1868,807.47253,866.30035,0.0,0.0,-0.32568359375,0.0589599609375,0.95892333984375,1.71966552734375,-2.295379638671875,-1.188812255859375,382783.8827838828,104372673.992674,49060000.0,67.40022,1.0,2.0,1.0,1.0,2.0,40.0,,0 days 00:00:00
2023-11-09 12:52:23.217,1.0089624,0.38656422,0.17406544,0.74479866,0.67904526,0.32400712,-0.2478777,0.5403207,0.5377874,0.50683683,0.24023084,0.6292205,0.6985356,-0.16324754,-0.13497251,0.5919062,0.19585502,-0.5150632,-0.4134706,0.3524603,822.381,824.7985,825.2015,831.2454,760.7326,0.0,0.0,-0.32568359375,0.0589599609375,0.95892333984375,1.71966552734375,-2.295379638671875,-1.188812255859375,382783.8827838828,104372673.992674,49060000.0,67.40022,1.0,2.0,1.0,1.0,2.0,40.0,,0 days 00:00:00.001000
2023-11-09 12:52:23.217,1.0089624,0.38656422,0.17406544,0.74479866,0.67904526,0.32400712,-0.2478777,0.5403207,0.5377874,0.50683683,0.24023084,0.6292205,0.6985356,-0.16324754,-0.13497251,0.5919062,0.19585502,-0.5150632,-0.4134706,0.3524603,811.9048,823.1868,826.8132,825.6044,786.1172,0.0,0.0,-0.32568359375,0.0589599609375,0.95892333984375,1.71966552734375,-2.295379638671875,-1.188812255859375,382783.8827838828,104372673.992674,49060000.0,67.40022,1.0,2.0,1.0,1.0,2.0,40.0,,0 days 00:00:00
2023-11-09 12:52:23.276,1.0089624,0.38656422,0.17406544,0.74479866,0.67904526,0.32400712,-0.2478777,0.5403207,0.5377874,0.50683683,0.24023084,0.6292205,0.6985356,-0.16324754,-0.13497251,0.5919062,0.19585502,-0.5150632,-0.4134706,0.3524603,780.87915,824.7985,829.6337,795.38464,776.04395,0.0,0.0,-0.32568359375,0.0589599609375,0.95892333984375,1.71966552734375,-2.295379638671875,-1.188812255859375,382783.8827838828,104387985.34798534,49051941.39194139,67.86218,1.0,2.0,1.0,1.0,2.0,40.0,,0 days 00:00:00.059000
2023-11-09 12:52:23.277,1.0089624,0.38656422,0.17406544,0.74479866,0.67904526,0.32400712,-0.2478777,0.5403207,0.5377874,0.50683683,0.24023084,0.6292205,0.6985356,-0.16324754,-0.13497251,0.5919062,0.19585502,-0.5150632,-0.4134706,0.3524603,786.1172,826.8132,827.2161,803.8461,762.3443,0.0,0.0,-0.32568359375,0.0589599609375,0.95892333984375,1.71966552734375,-2.295379638671875,-1.188812255859375,382783.8827838828,104387985.34798534,49051941.39194139,67.86218,1.0,2.0,1.0,1.0,2.0,40.0,,0 days 00:00:00.001000
2023-11-09 12:52:23.277,1.0089624,0.38656422,0.17406544,0.74479866,0.67904526,0.32400712,-0.2478777,0.5403207,0.5377874,0.50683683,0.24023084,0.6292205,0.6985356,-0.16324754,-0.13497251,0.5919062,0.19585502,-0.5150632,-0.4134706,0.3524603,811.9048,823.1868,825.2015,832.8571,870.32965,0.0,0.0,-0.32568359375,0.0589599609375,0.95892333984375,1.71966552734375,-2.295379638671875,-1.188812255859375,382783.8827838828,104387985.34798534,49051941.39194139,67.86218,1.0,2.0,1.0,1.0,2.0,40.0,,0 days 00:00:00
2023-11-09 12:52:23.278,1.0089624,0.38656422,0.17406544,0.74479866,0.67904526,0.32400712,-0.2478777,0.5403207,0.5377874,0.50683683,0.24023084,0.6292205,0.6985356,-0.16324754,-0.13497251,0.5919062,0.19585502,-0.5150632,-0.4134706,0.3524603,814.3223,821.5751,822.7839,826.4103,967.4359,0.0,0.0,-0.32568359375,0.0589599609375,0.95892333984375,1.71966552734375,-2.295379638671875,-1.188812255859375,382783.8827838828,104387985.34798534,49051941.39194139,67.86218,1.0,2.0,1.0,1.0,2.0,40.0,,0 days 00:00:00.001000
2023-11-09 12:52:23.279,1.0089624,0.38656422,0.17406544,0.74479866,0.67904526,0.32400712,-0.2478777,0.5403207,0.5377874,0.50683683,0.24023084,0.6292205,0.6985356,-0.16324754,-0.13497251,0.5919062,0.19585502,-0.5150632,-0.4134706,0.3524603,780.07324,820.3663,822.7839,798.20514,856.63007,0.0,0.0,-0.32568359375,0.0589599609375,0.95892333984375,1.71966552734375,-2.295379638671875,-1.188812255859375,382783.8827838828,104387985.34798534,49051941.39194139,67.86218,1.0,2.0,1.0,1.0,2.0,40.0,,0 days 00:00:00.001000
2023-11-09 12:52:23.279,1.0089624,0.38656422,0.17406544,0.74479866,0.67904526,0.32400712,-0.2478777,0.5403207,0.5377874,0.50683683,0.24023084,0.6292205,0.6985356,-0.16324754,-0.13497251,0.5919062,0.19585502,-0.5150632,-0.4134706,0.3524603,774.43225,819.5604,825.6044,800.6227,786.1172,0.0,0.0,-0.32568359375,0.0589599609375,0.95892333984375,1.71966552734375,-2.295379638671875,-1.188812255859375,382783.8827838828,104387985.34798534,49051941.39194139,67.86218,1.0,2.0,1.0,1.0,2.0,40.0,,0 days 00:00:00
2023-11-09 12:52:23.280,1.0089624,0.38656422,0.17406544,0.74479866,0.67904526,0.32400712,-0.2478777,0.5403207,0.5377874,0.50683683,0.24023084,0.6292205,0.6985356,-0.16324754,-0.13497251,0.5919062,0.19585502,-0.5150632,-0.4134706,0.3524603,800.6227,823.1868,825.2015,827.619,878.7912,0.0,0.0,-0.32568359375,0.0589599609375,0.95892333984375,1.71966552734375,-2.295379638671875,-1.188812255859375,382783.8827838828,104387985.34798534,49051941.39194139,67.86218,1.0,2.0,1.0,1.0,2.0,40.0,,0 days 00:00:00.001000
2023-11-09 12:52:23.280,1.0089624,0.38656422,0.17406544,0.74479866,0.67904526,0.32400712,-0.2478777,0.5403207,0.5377874,0.50683683,0.24023084,0.6292205,0.6985356,-0.16324754,-0.13497251,0.5919062,0.19585502,-0.5150632,-0.4134706,0.3524603,817.1429,821.5751,822.7839,845.34796,1118.9377,0.0,0.0,-0.32568359375,0.0589599609375,0.95892333984375,1.71966552734375,-2.295379638671875,-1.188812255859375,382783.8827838828,104387985.34798534,49051941.39194139,67.86218,1.0,2.0,1.0,1.0,2.0,40.0,,0 days 00:00:00
2023-11-09 12:52:23.281,1.0089624,0.38656422,0.17406544,0.74479866,0.67904526,0.32400712,-0.2478777,0.5403207,0.5377874,0.50683683,0.24023084,0.6292205,0.6985356,-0.16324754,-0.13497251,0.5919062,0.19585502,-0.5150632,-0.4134706,0.3524603,782.49084,817.9487,823.5897,824.7985,1241.8315,0.0,0.0,-0.32568359375,0.0589599609375,0.95892333984375,1.71966552734375,-2.295379638671875,-1.188812255859375,382783.8827838828,104387985.34798534,49051941.39194139,67.86218,1.0,2.0,1.0,1.0,2.0,40.0,,0 days 00:00:00.001000
2023-11-09 12:52:23.281,1.0089624,0.38656422,0.17406544,0.74479866,0.67904526,0.32400712,-0.2478777,0.5403207,0.5377874,0.50683683,0.24023084,0.6292205,0.6985356,-0.16324754,-0.13497251,0.5919062,0.19585502,-0.5150632,-0.4134706,0.3524603,765.16486,822.381,824.7985,804.2491,931.1722,0.0,0.0,-0.32568359375,0.0589599609375,0.95892333984375,1.71966552734375,-2.295379638671875,-1.188812255859375,382783.8827838828,104387985.34798534,49051941.39194139,67.86218,1.0,2.0,1.0,1.0,2.0,40.0,,0 days 00:00:00
2023-11-09 12:52:23.282,1.0089624,0.38656422,0.17406544,0.74479866,0.67904526,0.32400712,-0.2478777,0.5403207,0.5377874,0.50683683,0.24023084,0.6292205,0.6985356,-0.16324754,-0.13497251,0.5919062,0.19585502,-0.5150632,-0.4134706,0.3524603,807.47253,828.4249,821.978,824.7985,792.1612,0.0,0.0,-0.32568359375,0.0589599609375,0.95892333984375,1.71966552734375,-2.295379638671875,-1.188812255859375,382783.8827838828,104387985.34798534,49051941.39194139,67.86218,1.0,2.0,1.0,1.0,2.0,40.0,,0 days 00:00:00.001000
2023-11-09 12:52:23.282,0.8348455,0.383102,0.17701347,0.74479866,0.74114,0.32476863,-0.24133122,0.5403207,0.39979216,0.50683683,0.24023084,0.6292205,0.4306788,-0.16719079,-0.12906791,0.5919062,0.08312411,-0.5164025,-0.42089465,0.3524603,827.2161,826.4103,823.9927,838.0952,895.7143,0.0,0.0,-0.32568359375,0.0589599609375,0.95892333984375,1.71966552734375,-2.295379638671875,-1.188812255859375,382783.8827838828,104387985.34798534,49051941.39194139,67.86218,1.0,2.0,1.0,1.0,2.0,40.0,,0 days 00:00:00
2023-11-09 12:52:23.322,0.8348455,0.383102,0.17701347,0.74479866,0.74114,0.32476863,-0.24133122,0.5403207,0.39979216,0.50683683,0.24023084,0.6292205,0.4306788,-0.16719079,-0.12906791,0.5919062,0.08312411,-0.5164025,-0.42089465,0.3524603,805.8608,828.8278,827.619,813.91943,866.30035,0.0,0.0,-0.3287353515625,0.05938720703125,0.953857421875,3.09539794921875,-1.951446533203125,-2.100982666015625,382783.8827838828,104387985.34798534,49051941.39194139,67.86218,1.0,2.0,1.0,1.0,2.0,40.0,,0 days 00:00:00.040000
2023-11-09 12:52:23.323,0.8348455,0.383102,0.17701347,0.74479866,0.74114,0.32476863,-0.24133122,0.5403207,0.39979216,0.50683683,0.24023084,0.6292205,0.4306788,-0.16719079,-0.12906791,0.5919062,0.08312411,-0.5164025,-0.42089465,0.3524603,795.38464,833.2601,825.6044,807.8755,797.8022,0.0,0.0,-0.3287353515625,0.05938720703125,0.953857421875,3.09539794921875,-1.951446533203125,-2.100982666015625,382783.8827838828,104387985.34798534,49051941.39194139,67.86218,1.0,2.0,1.0,1.0,2.0,40.0,,0 days 00:00:00.001000
2023-11-09 12:52:23.324,0.8348455,0.383102,0.17701347,0.74479866,0.74114,0.32476863,-0.24133122,0.5403207,0.39979216,0.50683683,0.24023084,0.6292205,0.4306788,-0.16719079,-0.12906791,0.5919062,0.08312411,-0.5164025,-0.42089465,0.3524603,812.3077,830.4396,823.9927,821.5751,811.50183,0.0,0.0,-0.3287353515625,0.05938720703125,0.953857421875,3.09539794921875,-1.951446533203125,-2.100982666015625,382783.8827838828,104387985.34798534,49051941.39194139,67.86218,1.0,2.0,1.0,1.0,2.0,40.0,,0 days 00:00:00.001000
2023-11-09 12:52:23.324,0.8348455,0.383102,0.17701347,0.74479866,0.74114,0.32476863,-0.24133122,0.5403207,0.39979216,0.50683683,0.24023084,0.6292205,0.4306788,-0.16719079,-0.12906791,0.5919062,0.08312411,-0.5164025,-0.42089465,0.3524603,830.84247,827.619,819.9634,821.1722,850.58606,0.0,0.0,-0.3287353515625,0.05938720703125,0.953857421875,3.09539794921875,-1.951446533203125,-2.100982666015625,382783.8827838828,104387985.34798534,49051941.39194139,67.86218,1.0,2.0,1.0,1.0,2.0,40.0,,0 days 00:00:00
2023-11-09 12:52:23.325,0.8348455,0.383102,0.17701347,0.74479866,0.74114,0.32476863,-0.24133122,0.5403207,0.39979216,0.50683683,0.24023084,0.6292205,0.4306788,-0.16719079,-0.12906791,0.5919062,0.08312411,-0.5164025,-0.42089465,0.3524603,808.2784,823.9927,818.3516,816.7399,796.99634,0.0,0.0,-0.3287353515625,0.05938720703125,0.953857421875,3.09539794921875,-1.951446533203125,-2.100982666015625,382783.8827838828,104387985.34798534,49051941.39194139,67.86218,1.0,2.0,1.0,1.0,2.0,40.0,,0 days 00:00:00.001000
2023-11-09 12:52:23.326,0.8348455,0.383102,0.17701347,0.74479866,0.74114,0.32476863,-0.24133122,0.5403207,0.39979216,0.50683683,0.24023084,0.6292205,0.4306788,-0.16719079,-0.12906791,0.5919062,0.08312411,-0.5164025,-0.42089465,0.3524603,780.07324,821.1722,815.9341,805.4579,796.1905,0.0,0.0,-0.3287353515625,0.05938720703125,0.953857421875,3.09539794921875,-1.951446533203125,-2.100982666015625,382783.8827838828,104387985.34798534,49051941.39194139,67.86218,1.0,2.0,1.0,1.0,2.0,40.0,,0 days 00:00:00.001000
2023-11-09 12:52:23.326,0.8348455,0.383102,0.17701347,0.74479866,0.74114,0.32476863,-0.24133122,0.5403207,0.39979216,0.50683683,0.24023084,0.6292205,0.4306788,-0.16719079,-0.12906791,0.5919062,0.08312411,-0.5164025,-0.42089465,0.3524603,787.326,815.5311,812.3077,813.1135,1001.685,0.0,0.0,-0.3287353515625,0.05938720703125,0.953857421875,3.09539794921875,-1.951446533203125,-2.100982666015625,382783.8827838828,104387985.34798534,49051941.39194139,67.86218,1.0,2.0,1.0,1.0,2.0,40.0,,0 days 00:00:00
2023-11-09 12:52:23.327,0.8348455,0.383102,0.17701347,0.74479866,0.74114,0.32476863,-0.24133122,0.5403207,0.39979216,0.50683683,0.24023084,0.6292205,0.4306788,-0.16719079,-0.12906791,0.5919062,0.08312411,-0.5164025,-0.42089465,0.3524603,829.2308,814.3223,815.9341,847.3626,1197.9121,0.0,0.0,-0.3287353515625,0.05938720703125,0.953857421875,3.09539794921875,-1.951446533203125,-2.100982666015625,382783.8827838828,104387985.34798534,49051941.39194139,67.86218,1.0,2.0,1.0,1.0,2.0,40.0,,0 days 00:00:00.001000
2023-11-09 12:52:23.327,0.8348455,0.383102,0.17701347,0.74479866,0.74114,0.32476863,-0.24133122,0.5403207,0.39979216,0.50683683,0.24023084,0.6292205,0.4306788,-0.16719079,-0.12906791,0.5919062,0.08312411,-0.5164025,-0.42089465,0.3524603,829.2308,829.2308,817.5458,826.4103,951.31866,0.0,0.0,-0.3287353515625,0.05938720703125,0.953857421875,3.09539794921875,-1.951446533203125,-2.100982666015625,382783.8827838828,104387985.34798534,49051941.39194139,67.86218,1.0,2.0,1.0,1.0,2.0,40.0,,0 days 00:00:00
2023-11-09 12:52:23.328,0.8348455,0.383102,0.17701347,0.74479866,0.74114,0.32476863,-0.24133122,0.5403207,0.39979216,0.50683683,0.24023084,0.6292205,0.4306788,-0.16719079,-0.12906791,0.5919062,0.08312411,-0.5164025,-0.42089465,0.3524603,784.90845,827.2161,815.9341,788.5348,761.13556,0.0,0.0,-0.3287353515625,0.05938720703125,0.953857421875,3.09539794921875,-1.951446533203125,-2.100982666015625,382783.8827838828,104387985.34798534,49051941.39194139,67.86218,1.0,2.0,1.0,1.0,2.0,40.0,,0 days 00:00:00.001000
2023-11-09 12:52:23.328,0.8348455,0.383102,0.17701347,0.74479866,0.74114,0.32476863,-0.24133122,0.5403207,0.39979216,0.50683683,0.24023084,0.6292205,0.4306788,-0.16719079,-0.12906791,0.5919062,0.08312411,-0.5164025,-0.42089465,0.3524603,779.2674,820.3663,816.7399,794.9817,825.6044,0.0,0.0,-0.3287353515625,0.05938720703125,0.953857421875,3.09539794921875,-1.951446533203125,-2.100982666015625,382783.8827838828,104387985.34798534,49051941.39194139,67.86218,1.0,2.0,1.0,1.0,2.0,40.0,,0 days 00:00:00
2023-11-09 12:52:23.329,0.8348455,0.383102,0.17701347,0.74479866,0.74114,0.32476863,-0.24133122,0.5403207,0.39979216,0.50683683,0.24023084,0.6292205,0.4306788,-0.16719079,-0.12906791,0.5919062,0.08312411,-0.5164025,-0.42089465,0.3524603,813.1135,821.5751,819.9634,816.337,854.21246,0.0,0.0,-0.3287353515625,0.05938720703125,0.953857421875,3.09539794921875,-1.951446533203125,-2.100982666015625,382783.8827838828,104387985.34798534,49051941.39194139,67.86218,1.0,2.0,1.0,1.0,2.0,40.0,,0 days 00:00:00.001000
2023-11-09 12:52:23.355,0.8348455,0.383102,0.17701347,0.74479866,0.74114,0.32476863,-0.24133122,0.5403207,0.39979216,0.50683683,0.24023084,0.6292205,0.4306788,-0.16719079,-0.12906791,0.5919062,0.08312411,-0.5164025,-0.42089465,0.3524603,834.87177,823.1868,819.15753,821.978,834.0659,0.0,0.0,-0.3262939453125,0.06573486328125,0.9588623046875,2.97576904296875,-2.58697509765625,-2.041168212890625,382783.8827838828,104368644.68864468,49062417.58241758,68.29712,1.0,2.0,1.0,1.0,2.0,40.0,,0 days 00:00:00.026000
2023-11-09 12:52:23.355,0.8348455,0.383102,0.17701347,0.74479866,0.74114,0.32476863,-0.24133122,0.5403207,0.39979216,0.50683683,0.24023084,0.6292205,0.4306788,-0.16719079,-0.12906791,0.5919062,0.08312411,-0.5164025,-0.42089465,0.3524603,807.8755,821.1722,814.7253,795.78754,778.0586,0.0,0.0,-0.3262939453125,0.06573486328125,0.9588623046875,2.97576904296875,-2.58697509765625,-2.041168212890625,382783.8827838828,104368644.68864468,49062417.58241758,68.29712,1.0,2.0,1.0,1.0,2.0,40.0,,0 days 00:00:00
2023-11-09 12:52:23.356,0.8348455,0.383102,0.17701347,0.74479866,0.74114,0.32476863,-0.24133122,0.5403207,0.39979216,0.50683683,0.24023084,0.6292205,0.4306788,-0.16719079,-0.12906791,0.5919062,0.08312411,-0.5164025,-0.42089465,0.3524603,796.99634,822.381,818.7546,791.75824,739.3773,0.0,0.0,-0.3262939453125,0.06573486328125,0.9588623046875,2.97576904296875,-2.58697509765625,-2.041168212890625,382783.8827838828,104368644.68864468,49062417.58241758,68.29712,1.0,2.0,1.0,1.0,2.0,40.0,,0 days 00:00:00.001000
2023-11-09 12:52:23.356,0.8348455,0.383102,0.17701347,0.74479866,0.74114,0.32476863,-0.24133122,0.5403207,0.39979216,0.50683683,0.24023084,0.6292205,0.4306788,-0.16719079,-0.12906791,0.5919062,0.08312411,-0.5164025,-0.42089465,0.3524603,820.3663,827.619,821.5751,816.337,769.59705,0.0,0.0,-0.3262939453125,0.06573486328125,0.9588623046875,2.97576904296875,-2.58697509765625,-2.041168212890625,382783.8827838828,104368644.68864468,49062417.58241758,68.29712,1.0,2.0,1.0,1.0,2.0,40.0,,0 days 00:00:00
2023-11-09 12:52:23.356,0.8348455,0.383102,0.17701347,0.74479866,0.74114,0.32476863,-0.24133122,0.5403207,0.39979216,0.50683683,0.24023084,0.6292205,0.4306788,-0.16719079,-0.12906791,0.5919062,0.08312411,-0.5164025,-0.42089465,0.3524603,844.1392,829.6337,820.7692,837.28937,815.9341,0.0,0.0,-0.3262939453125,0.06573486328125,0.9588623046875,2.97576904296875,-2.58697509765625,-2.041168212890625,382783.8827838828,104368644.68864468,49062417.58241758,68.29712,1.0,2.0,1.0,1.0,2.0,40.0,,0 days 00:00:00
2023-11-09 12:52:23.357,0.8348455,0.383102,0.17701347,0.74479866,0.74114,0.32476863,-0.24133122,0.5403207,0.39979216,0.50683683,0.24023084,0.6292205,0.4306788,-0.16719079,-0.12906791,0.5919062,0.08312411,-0.5164025,-0.42089465,0.3524603,802.23444,823.9927,824.3956,817.1429,796.99634,0.0,0.0,-0.3262939453125,0.06573486328125,0.9588623046875,2.97576904296875,-2.58697509765625,-2.041168212890625,382783.8827838828,104368644.68864468,49062417.58241758,68.29712,1.0,2.0,1.0,1.0,2.0,40.0,,0 days 00:00:00.001000
2023-11-09 12:52:23.357,0.8348455,0.383102,0.17701347,0.74479866,0.74114,0.32476863,-0.24133122,0.5403207,0.39979216,0.50683683,0.24023084,0.6292205,0.4306788,-0.16719079,-0.12906791,0.5919062,0.08312411,-0.5164025,-0.42089465,0.3524603,774.43225,817.9487,819.9634,787.326,972.27106,0.0,0.0,-0.3262939453125,0.06573486328125,0.9588623046875,2.97576904296875,-2.58697509765625,-2.041168212890625,382783.8827838828,104368644.68864468,49062417.58241758,68.29712,1.0,2.0,1.0,1.0,2.0,40.0,,0 days 00:00:00
2023-11-09 12:52:23.357,0.8348455,0.383102,0.17701347,0.74479866,0.74114,0.32476863,-0.24133122,0.5403207,0.39979216,0.50683683,0.24023084,0.6292205,0.4306788,-0.16719079,-0.12906791,0.5919062,0.08312411,-0.5164025,-0.42089465,0.3524603,802.6374,823.9927,809.89014,803.44324,985.16486,0.0,0.0,-0.3262939453125,0.06573486328125,0.9588623046875,2.97576904296875,-2.58697509765625,-2.041168212890625,382783.8827838828,104368644.68864468,49062417.58241758,68.29712,1.0,2.0,1.0,1.0,2.0,40.0,,0 days 00:00:00
2023-11-09 12:52:23.358,0.8348455,0.383102,0.17701347,0.74479866,0.74114,0.32476863,-0.24133122,0.5403207,0.39979216,0.50683683,0.24023084,0.6292205,0.4306788,-0.16719079,-0.12906791,0.5919062,0.08312411,-0.5164025,-0.42089465,0.3524603,839.707,832.0513,815.5311,833.2601,788.93774,0.0,0.0,-0.3262939453125,0.06573486328125,0.9588623046875,2.97576904296875,-2.58697509765625,-2.041168212890625,382783.8827838828,104368644.68864468,49062417.58241758,68.29712,1.0,2.0,1.0,1.0,2.0,40.0,,0 days 00:00:00.001000
2023-11-09 12:52:23.358,0.8348455,0.383102,0.17701347,0.74479866,0.74114,0.32476863,-0.24133122,0.5403207,0.39979216,0.50683683,0.24023084,0.6292205,0.4306788,-0.16719079,-0.12906791,0.5919062,0.08312411,-0.5164025,-0.42089465,0.3524603,831.6484,830.0366,823.9927,817.5458,774.83514,0.0,0.0,-0.3262939453125,0.06573486328125,0.9588623046875,2.97576904296875,-2.58697509765625,-2.041168212890625,382783.8827838828,104368644.68864468,49062417.58241758,68.29712,1.0,2.0,1.0,1.0,2.0,40.0,,0 days 00:00:00
2023-11-09 12:52:23.358,0.8348455,0.383102,0.17701347,0.74479866,0.74114,0.32476863,-0.24133122,0.5403207,0.39979216,0.50683683,0.24023084,0.6292205,0.4306788,-0.16719079,-0.12906791,0.5919062,0.08312411,-0.5164025,-0.42089465,0.3524603,770.0,823.1868,823.1868,781.28204,913.8461,0.0,0.0,-0.3262939453125,0.06573486328125,0.9588623046875,2.97576904296875,-2.58697509765625,-2.041168212890625,382783.8827838828,104368644.68864468,49062417.58241758,68.29712,1.0,2.0,1.0,1.0,2.0,40.0,,0 days 00:00:00
2023-11-09 12:52:23.359,0.8348455,0.383102,0.17701347,0.74479866,0.74114,0.32476863,-0.24133122,0.5403207,0.39979216,0.50683683,0.24023084,0.6292205,0.4306788,-0.16719079,-0.12906791,0.5919062,0.08312411,-0.5164025,-0.42089465,0.3524603,770.0,823.1868,824.3956,790.14655,869.92676,0.0,0.0,-0.3262939453125,0.06573486328125,0.9588623046875,2.97576904296875,-2.58697509765625,-2.041168212890625,382783.8827838828,104368644.68864468,49062417.58241758,68.29712,1.0,2.0,1.0,1.0,2.0,40.0,,0 days 00:00:00.001000
2023-11-09 12:52:23.424,0.8348455,0.383102,0.17701347,0.74479866,0.74114,0.32476863,-0.24133122,0.5403207,0.39979216,0.50683683,0.24023084,0.6292205,0.4306788,-0.16719079,-0.12906791,0.5919062,0.08312411,-0.5164025,-0.42089465,0.3524603,820.3663,824.7985,828.4249,813.91943,684.57874,0.0,0.0,-0.326904296875,0.06451416015625,0.960693359375,1.74957275390625,-4.747772216796875,-1.1065673828125,382783.8827838828,104368644.68864468,49062417.58241758,68.29712,1.0,2.0,1.0,1.0,2.0,40.0,,0 days 00:00:00.065000
2023-11-09 12:52:23.425,0.83808666,0.3686259,0.17795944,1.2197285,0.73791116,0.32145664,-0.22712198,0.75243956,0.39979216,0.50683683,0.25060907,0.36262727,0.40121347,-0.16639708,-0.12316836,0.45644936,0.10902914,-0.52055335,-0.4392325,0.10475998,816.7399,819.9634,827.619,808.68134,725.6777,0.0,0.0,-0.326904296875,0.06451416015625,0.960693359375,1.74957275390625,-4.747772216796875,-1.1065673828125,382783.8827838828,104368644.68864468,49062417.58241758,68.29712,1.0,1.0,1.0,1.0,1.0,40.0,,0 days 00:00:00.001000
2023-11-09 12:52:23.427,0.83808666,0.3686259,0.17795944,1.2197285,0.73791116,0.32145664,-0.22712198,0.75243956,0.39979216,0.50683683,0.25060907,0.36262727,0.40121347,-0.16639708,-0.12316836,0.45644936,0.10902914,-0.52055335,-0.4392325,0.10475998,782.49084,821.1722,821.978,777.6557,726.08057,0.0,0.0,-0.326904296875,0.06451416015625,0.960693359375,1.74957275390625,-4.747772216796875,-1.1065673828125,382783.8827838828,104368644.68864468,49062417.58241758,68.29712,1.0,1.0,1.0,1.0,1.0,40.0,,0 days 00:00:00.002000
2023-11-09 12:52:23.427,0.83808666,0.3686259,0.17795944,1.2197285,0.73791116,0.32145664,-0.22712198,0.75243956,0.39979216,0.50683683,0.25060907,0.36262727,0.40121347,-0.16639708,-0.12316836,0.45644936,0.10902914,-0.52055335,-0.4392325,0.10475998,783.2967,821.978,821.978,768.7912,676.1172,0.0,0.0,-0.326904296875,0.06451416015625,0.960693359375,1.74957275390625,-4.747772216796875,-1.1065673828125,382783.8827838828,104368644.68864468,49062417.58241758,68.29712,1.0,1.0,1.0,1.0,1.0,40.0,,0 days 00:00:00
2023-11-09 12:52:23.428,0.83808666,0.3686259,0.17795944,1.2197285,0.73791116,0.32145664,-0.22712198,0.75243956,0.39979216,0.50683683,0.25060907,0.36262727,0.40121347,-0.16639708,-0.12316836,0.45644936,0.10902914,-0.52055335,-0.4392325,0.10475998,820.7692,819.5604,820.3663,797.8022,674.10254,0.0,0.0,-0.326904296875,0.06451416015625,0.960693359375,1.74957275390625,-4.747772216796875,-1.1065673828125,382783.8827838828,104368644.68864468,49062417.58241758,68.29712,1.0,1.0,1.0,1.0,1.0,40.0,,0 days 00:00:00.001000
2023-11-09 12:52:23.428,0.83808666,0.3686259,0.17795944,1.2197285,0.73791116,0.32145664,-0.22712198,0.75243956,0.39979216,0.50683683,0.25060907,0.36262727,0.40121347,-0.16639708,-0.12316836,0.45644936,0.10902914,-0.52055335,-0.4392325,0.10475998,831.2454,815.12823,817.5458,817.5458,847.76556,0.0,0.0,-0.326904296875,0.06451416015625,0.960693359375,1.74957275390625,-4.747772216796875,-1.1065673828125,382783.8827838828,104368644.68864468,49062417.58241758,68.29712,1.0,1.0,1.0,1.0,1.0,40.0,,0 days 00:00:00
2023-11-09 12:52:23.429,0.83808666,0.3686259,0.17795944,1.2197285,0.73791116,0.32145664,-0.22712198,0.75243956,0.39979216,0.50683683,0.25060907,0.36262727,0.40121347,-0.16639708,-0.12316836,0.45644936,0.10902914,-0.52055335,-0.4392325,0.10475998,801.8315,809.89014,820.3663,795.78754,928.3516,0.0,0.0,-0.326904296875,0.06451416015625,0.960693359375,1.74957275390625,-4.747772216796875,-1.1065673828125,382783.8827838828,104368644.68864468,49062417.58241758,68.29712,1.0,1.0,1.0,1.0,1.0,40.0,,0 days 00:00:00.001000
2023-11-09 12:52:23.429,0.83808666,0.3686259,0.17795944,1.2197285,0.73791116,0.32145664,-0.22712198,0.75243956,0.39979216,0.50683683,0.25060907,0.36262727,0.40121347,-0.16639708,-0.12316836,0.45644936,0.10902914,-0.52055335,-0.4392325,0.10475998,787.72894,813.1135,820.7692,777.6557,740.58606,0.0,0.0,-0.326904296875,0.06451416015625,0.960693359375,1.74957275390625,-4.747772216796875,-1.1065673828125,382783.8827838828,104368644.68864468,49062417.58241758,68.29712,1.0,1.0,1.0,1.0,1.0,40.0,,0 days 00:00:00
2023-11-09 12:52:23.430,0.83808666,0.3686259,0.17795944,1.2197285,0.73791116,0.32145664,-0.22712198,0.75243956,0.39979216,0.50683683,0.25060907,0.36262727,0.40121347,-0.16639708,-0.12316836,0.45644936,0.10902914,-0.52055335,-0.4392325,0.10475998,815.5311,822.381,818.7546,787.72894,686.99634,0.0,0.0,-0.326904296875,0.06451416015625,0.960693359375,1.74957275390625,-4.747772216796875,-1.1065673828125,382783.8827838828,104368644.68864468,49062417.58241758,68.29712,1.0,1.0,1.0,1.0,1.0,40.0,,0 days 00:00:00.001000
2023-11-09 12:52:23.430,0.83808666,0.3686259,0.17795944,1.2197285,0.73791116,0.32145664,-0.22712198,0.75243956,0.39979216,0.50683683,0.25060907,0.36262727,0.40121347,-0.16639708,-0.12316836,0.45644936,0.10902914,-0.52055335,-0.4392325,0.10475998,834.4689,822.7839,817.5458,805.8608,871.53845,0.0,0.0,-0.326904296875,0.06451416015625,0.960693359375,1.74957275390625,-4.747772216796875,-1.1065673828125,382783.8827838828,104368644.68864468,49062417.58241758,68.29712,1.0,1.0,1.0,1.0,1.0,40.0,,0 days 00:00:00
2023-11-09 12:52:23.430,0.83808666,0.3686259,0.17795944,1.2197285,0.73791116,0.32145664,-0.22712198,0.75243956,0.39979216,0.50683683,0.25060907,0.36262727,0.40121347,-0.16639708,-0.12316836,0.45644936,0.10902914,-0.52055335,-0.4392325,0.10475998,802.6374,818.7546,823.9927,802.23444,921.0989,0.0,0.0,-0.326904296875,0.06451416015625,0.960693359375,1.74957275390625,-4.747772216796875,-1.1065673828125,382783.8827838828,104368644.68864468,49062417.58241758,68.29712,1.0,1.0,1.0,1.0,1.0,40.0,,0 days 00:00:00
2023-11-09 12:52:23.431,0.83808666,0.3686259,0.17795944,1.2197285,0.73791116,0.32145664,-0.22712198,0.75243956,0.39979216,0.50683683,0.25060907,0.36262727,0.40121347,-0.16639708,-0.12316836,0.45644936,0.10902914,-0.52055335,-0.4392325,0.10475998,792.1612,823.5897,825.2015,793.36993,749.85345,0.0,0.0,-0.326904296875,0.06451416015625,0.960693359375,1.74957275390625,-4.747772216796875,-1.1065673828125,382783.8827838828,104368644.68864468,49062417.58241758,68.29712,1.0,1.0,1.0,1.0,1.0,40.0,,0 days 00:00:00.001000
2023-11-09 12:52:23.465,0.83808666,0.3686259,0.17795944,1.2197285,0.73791116,0.32145664,-0.22712198,0.75243956,0.39979216,0.50683683,0.25060907,0.36262727,0.40121347,-0.16639708,-0.12316836,0.45644936,0.10902914,-0.52055335,-0.4392325,0.10475998,799.81683,826.4103,817.1429,795.38464,686.1905,0.0,0.0,-0.321533203125,0.059814453125,0.95208740234375,1.92901611328125,-5.345916748046875,-1.57012939453125,384395.6043956044,104407326.007326,49111575.09157509,68.70659,1.0,1.0,1.0,1.0,1.0,40.0,,0 days 00:00:00.034000
2023-11-09 12:52:23.466,0.83808666,0.3686259,0.17795944,1.2197285,0.73791116,0.32145664,-0.22712198,0.75243956,0.39979216,0.50683683,0.25060907,0.36262727,0.40121347,-0.16639708,-0.12316836,0.45644936,0.10902914,-0.52055335,-0.4392325,0.10475998,827.619,823.5897,816.7399,811.50183,881.6117,0.0,0.0,-0.321533203125,0.059814453125,0.95208740234375,1.92901611328125,-5.345916748046875,-1.57012939453125,384395.6043956044,104407326.007326,49111575.09157509,68.70659,1.0,1.0,1.0,1.0,1.0,40.0,,0 days 00:00:00.001000
2023-11-09 12:52:23.466,0.83808666,0.3686259,0.17795944,1.2197285,0.73791116,0.32145664,-0.22712198,0.75243956,0.39979216,0.50683683,0.25060907,0.36262727,0.40121347,-0.16639708,-0.12316836,0.45644936,0.10902914,-0.52055335,-0.4392325,0.10475998,823.5897,817.5458,817.5458,813.91943,931.978,0.0,0.0,-0.321533203125,0.059814453125,0.95208740234375,1.92901611328125,-5.345916748046875,-1.57012939453125,384395.6043956044,104407326.007326,49111575.09157509,68.70659,1.0,1.0,1.0,1.0,1.0,40.0,,0 days 00:00:00
2023-11-09 12:52:23.467,0.83808666,0.3686259,0.17795944,1.2197285,0.73791116,0.32145664,-0.22712198,0.75243956,0.39979216,0.50683683,0.25060907,0.36262727,0.40121347,-0.16639708,-0.12316836,0.45644936,0.10902914,-0.52055335,-0.4392325,0.10475998,796.1905,821.1722,820.3663,794.17584,707.9487,0.0,0.0,-0.321533203125,0.059814453125,0.95208740234375,1.92901611328125,-5.345916748046875,-1.57012939453125,384395.6043956044,104407326.007326,49111575.09157509,68.70659,1.0,1.0,1.0,1.0,1.0,40.0,,0 days 00:00:00.001000
2023-11-09 12:52:23.467,0.83808666,0.3686259,0.17795944,1.2197285,0.73791116,0.32145664,-0.22712198,0.75243956,0.39979216,0.50683683,0.25060907,0.36262727,0.40121347,-0.16639708,-0.12316836,0.45644936,0.10902914,-0.52055335,-0.4392325,0.10475998,817.5458,824.3956,824.7985,803.8461,753.8828,0.0,0.0,-0.321533203125,0.059814453125,0.95208740234375,1.92901611328125,-5.345916748046875,-1.57012939453125,384395.6043956044,104407326.007326,49111575.09157509,68.70659,1.0,1.0,1.0,1.0,1.0,40.0,,0 days 00:00:00
2023-11-09 12:52:23.468,0.83808666,0.3686259,0.17795944,1.2197285,0.73791116,0.32145664,-0.22712198,0.75243956,0.39979216,0.50683683,0.25060907,0.36262727,0.40121347,-0.16639708,-0.12316836,0.45644936,0.10902914,-0.52055335,-0.4392325,0.10475998,826.4103,817.9487,823.1868,825.6044,879.19415,0.0,0.0,-0.321533203125,0.059814453125,0.95208740234375,1.92901611328125,-5.345916748046875,-1.57012939453125,384395.6043956044,104407326.007326,49111575.09157509,68.70659,1.0,1.0,1.0,1.0,1.0,40.0,,0 days 00:00:00.001000
2023-11-09 12:52:23.468,0.83808666,0.3686259,0.17795944,1.2197285,0.73791116,0.32145664,-0.22712198,0.75243956,0.39979216,0.50683683,0.25060907,0.36262727,0.40121347,-0.16639708,-0.12316836,0.45644936,0.10902914,-0.52055335,-0.4392325,0.10475998,828.022,820.7692,816.7399,819.9634,878.3883,0.0,0.0,-0.321533203125,0.059814453125,0.95208740234375,1.92901611328125,-5.345916748046875,-1.57012939453125,384395.6043956044,104407326.007326,49111575.09157509,68.70659,1.0,1.0,1.0,1.0,1.0,40.0,,0 days 00:00:00
2023-11-09 12:52:23.469,0.83808666,0.3686259,0.17795944,1.2197285,0.73791116,0.32145664,-0.22712198,0.75243956,0.39979216,0.50683683,0.25060907,0.36262727,0.40121347,-0.16639708,-0.12316836,0.45644936,0.10902914,-0.52055335,-0.4392325,0.10475998,813.5165,824.7985,809.0842,777.25275,832.0513,0.0,0.0,-0.321533203125,0.059814453125,0.95208740234375,1.92901611328125,-5.345916748046875,-1.57012939453125,384395.6043956044,104407326.007326,49111575.09157509,68.70659,1.0,1.0,1.0,1.0,1.0,40.0,,0 days 00:00:00.001000
2023-11-09 12:52:23.469,0.83808666,0.3686259,0.17795944,1.2197285,0.73791116,0.32145664,-0.22712198,0.75243956,0.39979216,0.50683683,0.25060907,0.36262727,0.40121347,-0.16639708,-0.12316836,0.45644936,0.10902914,-0.52055335,-0.4392325,0.10475998,790.9524,820.3663,813.1135,770.0,758.71796,0.0,0.0,-0.321533203125,0.059814453125,0.95208740234375,1.92901611328125,-5.345916748046875,-1.57012939453125,384395.6043956044,104407326.007326,49111575.09157509,68.70659,1.0,1.0,1.0,1.0,1.0,40.0,,0 days 00:00:00
2023-11-09 12:52:23.470,0.83808666,0.3686259,0.17795944,1.2197285,0.73791116,0.32145664,-0.22712198,0.75243956,0.39979216,0.50683683,0.25060907,0.36262727,0.40121347,-0.16639708,-0.12316836,0.45644936,0.10902914,-0.52055335,-0.4392325,0.10475998,819.15753,820.7692,816.7399,813.91943,974.68866,0.0,0.0,-0.321533203125,0.059814453125,0.95208740234375,1.92901611328125,-5.345916748046875,-1.57012939453125,384395.6043956044,104407326.007326,49111575.09157509,68.70659,1.0,1.0,1.0,1.0,1.0,40.0,,0 days 00:00:00.001000
2023-11-09 12:52:23.470,0.83808666,0.3686259,0.17795944,1.2197285,0.73791116,0.32145664,-0.22712198,0.75243956,0.39979216,0.50683683,0.25060907,0.36262727,0.40121347,-0.16639708,-0.12316836,0.45644936,0.10902914,-0.52055335,-0.4392325,0.10475998,834.4689,823.9927,811.0989,826.4103,1037.9487,0.0,0.0,-0.321533203125,0.059814453125,0.95208740234375,1.92901611328125,-5.345916748046875,-1.57012939453125,384395.6043956044,104407326.007326,49111575.09157509,68.70659,1.0,1.0,1.0,1.0,1.0,40.0,,0 days 00:00:00
2023-11-09 12:52:23.471,0.83808666,0.3686259,0.17795944,1.2197285,0.73791116,0.32145664,-0.22712198,0.75243956,0.39979216,0.50683683,0.25060907,0.36262727,0.40121347,-0.16639708,-0.12316836,0.45644936,0.10902914,-0.52055335,-0.4392325,0.10475998,800.2198,824.3956,811.50183,785.7143,700.293,0.0,0.0,-0.321533203125,0.059814453125,0.95208740234375,1.92901611328125,-5.345916748046875,-1.57012939453125,384395.6043956044,104407326.007326,49111575.09157509,68.70659,1.0,1.0,1.0,1.0,1.0,40.0,,0 days 00:00:00.001000
2023-11-09 12:52:23.508,0.83808666,0.3686259,0.17795944,1.2197285,0.73791116,0.32145664,-0.22712198,0.75243956,0.39979216,0.50683683,0.25060907,0.36262727,0.40121347,-0.16639708,-0.12316836,0.45644936,0.10902914,-0.52055335,-0.4392325,0.10475998,793.36993,826.0073,815.12823,776.04395,649.92676,0.0,0.0,-0.321533203125,0.059814453125,0.95208740234375,1.92901611328125,-5.345916748046875,-1.57012939453125,384395.6043956044,104407326.007326,49111575.09157509,68.70659,1.0,1.0,1.0,1.0,1.0,40.0,,0 days 00:00:00.037000
2023-11-09 12:52:23.509,0.83808666,0.3686259,0.17795944,1.2197285,0.73791116,0.32145664,-0.22712198,0.75243956,0.39979216,0.50683683,0.25060907,0.36262727,0.40121347,-0.16639708,-0.12316836,0.45644936,0.10902914,-0.52055335,-0.4392325,0.10475998,802.23444,828.022,816.7399,799.81683,764.7619,0.0,0.0,-0.321533203125,0.059814453125,0.95208740234375,1.92901611328125,-5.345916748046875,-1.57012939453125,384395.6043956044,104407326.007326,49111575.09157509,68.70659,1.0,1.0,1.0,1.0,1.0,40.0,,0 days 00:00:00.001000
2023-11-09 12:52:23.510,0.83808666,0.3686259,0.17795944,1.2197285,0.73791116,0.32145664,-0.22712198,0.75243956,0.39979216,0.50683683,0.25060907,0.36262727,0.40121347,-0.16639708,-0.12316836,0.45644936,0.10902914,-0.52055335,-0.4392325,0.10475998,827.2161,825.2015,812.71063,815.5311,800.6227,0.0,0.0,-0.321533203125,0.059814453125,0.95208740234375,1.92901611328125,-5.345916748046875,-1.57012939453125,384395.6043956044,104407326.007326,49111575.09157509,68.70659,1.0,1.0,1.0,1.0,1.0,40.0,,0 days 00:00:00.001000
2023-11-09 12:52:23.510,0.8182086,0.3268887,0.17396313,1.2736611,0.71524745,0.29819155,-0.20921156,0.7692174,0.39979216,0.50683683,0.29227164,0.37898508,0.37284663,-0.16352378,-0.12073084,0.4308429,0.12967451,-0.5253573,-0.46391582,0.08053243,814.7253,822.7839,810.293,802.23444,747.8388,0.0,0.0,-0.321533203125,0.059814453125,0.95208740234375,1.92901611328125,-5.345916748046875,-1.57012939453125,384395.6043956044,104407326.007326,49111575.09157509,68.70659,1.0,1.0,1.0,1.0,1.0,40.0,,0 days 00:00:00
2023-11-09 12:52:23.513,0.8182086,0.3268887,0.17396313,1.2736611,0.71524745,0.29819155,-0.20921156,0.7692174,0.39979216,0.50683683,0.29227164,0.37898508,0.37284663,-0.16352378,-0.12073084,0.4308429,0.12967451,-0.5253573,-0.46391582,0.08053243,776.4469,819.9634,810.696,775.2381,807.8755,0.0,0.0,-0.321533203125,0.059814453125,0.95208740234375,1.92901611328125,-5.345916748046875,-1.57012939453125,384395.6043956044,104407326.007326,49111575.09157509,68.70659,1.0,1.0,1.0,1.0,1.0,40.0,,0 days 00:00:00.003000
2023-11-09 12:52:23.513,0.8182086,0.3268887,0.17396313,1.2736611,0.71524745,0.29819155,-0.20921156,0.7692174,0.39979216,0.50683683,0.29227164,0.37898508,0.37284663,-0.16352378,-0.12073084,0.4308429,0.12967451,-0.5253573,-0.46391582,0.08053243,801.4286,824.7985,815.5311,802.23444,874.35895,0.0,0.0,-0.321533203125,0.059814453125,0.95208740234375,1.92901611328125,-5.345916748046875,-1.57012939453125,384395.6043956044,104407326.007326,49111575.09157509,68.70659,1.0,1.0,1.0,1.0,1.0,40.0,,0 days 00:00:00
2023-11-09 12:52:23.514,0.8182086,0.3268887,0.17396313,1.2736611,0.71524745,0.29819155,-0.20921156,0.7692174,0.39979216,0.50683683,0.29227164,0.37898508,0.37284663,-0.16352378,-0.12073084,0.4308429,0.12967451,-0.5253573,-0.46391582,0.08053243,827.2161,828.022,821.1722,823.5897,818.3516,0.0,0.0,-0.321533203125,0.059814453125,0.95208740234375,1.92901611328125,-5.345916748046875,-1.57012939453125,384395.6043956044,104407326.007326,49111575.09157509,68.70659,1.0,1.0,1.0,1.0,1.0,40.0,,0 days 00:00:00.001000
2023-11-09 12:52:23.514,0.8182086,0.3268887,0.17396313,1.2736611,0.71524745,0.29819155,-0.20921156,0.7692174,0.39979216,0.50683683,0.29227164,0.37898508,0.37284663,-0.16352378,-0.12073084,0.4308429,0.12967451,-0.5253573,-0.46391582,0.08053243,811.50183,826.8132,817.9487,796.5934,774.0293,0.0,0.0,-0.321533203125,0.059814453125,0.95208740234375,1.92901611328125,-5.345916748046875,-1.57012939453125,384395.6043956044,104407326.007326,49111575.09157509,68.70659,1.0,1.0,1.0,1.0,1.0,40.0,,0 days 00:00:00
2023-11-09 12:52:23.514,0.8182086,0.3268887,0.17396313,1.2736611,0.71524745,0.29819155,-0.20921156,0.7692174,0.39979216,0.50683683,0.29227164,0.37898508,0.37284663,-0.16352378,-0.12073084,0.4308429,0.12967451,-0.5253573,-0.46391582,0.08053243,781.28204,825.2015,816.337,774.83514,856.63007,0.0,0.0,-0.321533203125,0.059814453125,0.95208740234375,1.92901611328125,-5.345916748046875,-1.57012939453125,384395.6043956044,104407326.007326,49111575.09157509,68.70659,1.0,1.0,1.0,1.0,1.0,40.0,,0 days 00:00:00
2023-11-09 12:52:23.514,0.8182086,0.3268887,0.17396313,1.2736611,0.71524745,0.29819155,-0.20921156,0.7692174,0.39979216,0.50683683,0.29227164,0.37898508,0.37284663,-0.16352378,-0.12073084,0.4308429,0.12967451,-0.5253573,-0.46391582,0.08053243,770.40295,820.7692,817.9487,787.72894,956.55676,0.0,0.0,-0.321533203125,0.059814453125,0.95208740234375,1.92901611328125,-5.345916748046875,-1.57012939453125,384395.6043956044,104407326.007326,49111575.09157509,68.70659,1.0,1.0,1.0,1.0,1.0,40.0,,0 days 00:00:00
2023-11-09 12:52:23.515,0.8182086,0.3268887,0.17396313,1.2736611,0.71524745,0.29819155,-0.20921156,0.7692174,0.39979216,0.50683683,0.29227164,0.37898508,0.37284663,-0.16352378,-0.12073084,0.4308429,0.12967451,-0.5253573,-0.46391582,0.08053243,794.57874,826.0073,813.91943,813.91943,805.8608,0.0,0.0,-0.321533203125,0.059814453125,0.95208740234375,1.92901611328125,-5.345916748046875,-1.57012939453125,384395.6043956044,104407326.007326,49111575.09157509,68.70659,1.0,1.0,1.0,1.0,1.0,40.0,,0 days 00:00:00.001000
2023-11-09 12:52:23.515,0.8182086,0.3268887,0.17396313,1.2736611,0.71524745,0.29819155,-0.20921156,0.7692174,0.39979216,0.50683683,0.29227164,0.37898508,0.37284663,-0.16352378,-0.12073084,0.4308429,0.12967451,-0.5253573,-0.46391582,0.08053243,808.68134,831.2454,804.2491,806.26373,778.46155,0.0,0.0,-0.321533203125,0.059814453125,0.95208740234375,1.92901611328125,-5.345916748046875,-1.57012939453125,384395.6043956044,104407326.007326,49111575.09157509,68.70659,1.0,1.0,1.0,1.0,1.0,40.0,,0 days 00:00:00
2023-11-09 12:52:23.574,0.8182086,0.3268887,0.17396313,1.2736611,0.71524745,0.29819155,-0.20921156,0.7692174,0.39979216,0.50683683,0.29227164,0.37898508,0.37284663,-0.16352378,-0.12073084,0.4308429,0.12967451,-0.5253573,-0.46391582,0.08053243,778.46155,826.0073,804.2491,779.67035,802.6374,0.0,0.0,-0.32513427734375,0.05841064453125,0.96002197265625,2.04864501953125,-6.228179931640625,-1.07666015625,383589.7435897435,104417802.1978022,49153479.853479855,69.09209,1.0,1.0,1.0,1.0,1.0,40.0,,0 days 00:00:00.059000
2023-11-09 12:52:23.574,0.8182086,0.3268887,0.17396313,1.2736611,0.71524745,0.29819155,-0.20921156,0.7692174,0.39979216,0.50683683,0.29227164,0.37898508,0.37284663,-0.16352378,-0.12073084,0.4308429,0.12967451,-0.5253573,-0.46391582,0.08053243,770.80585,821.978,810.696,780.4762,752.674,0.0,0.0,-0.32513427734375,0.05841064453125,0.96002197265625,2.04864501953125,-6.228179931640625,-1.07666015625,383589.7435897435,104417802.1978022,49153479.853479855,69.09209,1.0,1.0,1.0,1.0,1.0,40.0,,0 days 00:00:00
2023-11-09 12:52:23.575,0.8182086,0.3268887,0.17396313,1.2736611,0.71524745,0.29819155,-0.20921156,0.7692174,0.39979216,0.50683683,0.29227164,0.37898508,0.37284663,-0.16352378,-0.12073084,0.4308429,0.12967451,-0.5253573,-0.46391582,0.08053243,806.26373,826.8132,811.9048,801.4286,732.9304,0.0,0.0,-0.32513427734375,0.05841064453125,0.96002197265625,2.04864501953125,-6.228179931640625,-1.07666015625,383589.7435897435,104417802.1978022,49153479.853479855,69.09209,1.0,1.0,1.0,1.0,1.0,40.0,,0 days 00:00:00.001000
2023-11-09 12:52:23.575,0.8182086,0.3268887,0.17396313,1.2736611,0.71524745,0.29819155,-0.20921156,0.7692174,0.39979216,0.50683683,0.29227164,0.37898508,0.37284663,-0.16352378,-0.12073084,0.4308429,0.12967451,-0.5253573,-0.46391582,0.08053243,819.9634,828.4249,804.65204,826.4103,744.61536,0.0,0.0,-0.32513427734375,0.05841064453125,0.96002197265625,2.04864501953125,-6.228179931640625,-1.07666015625,383589.7435897435,104417802.1978022,49153479.853479855,69.09209,1.0,1.0,1.0,1.0,1.0,40.0,,0 days 00:00:00
2023-11-09 12:52:23.576,0.8182086,0.3268887,0.17396313,1.2736611,0.71524745,0.29819155,-0.20921156,0.7692174,0.39979216,0.50683683,0.29227164,0.37898508,0.37284663,-0.16352378,-0.12073084,0.4308429,0.12967451,-0.5253573,-0.46391582,0.08053243,780.87915,821.978,803.8461,799.41394,774.0293,0.0,0.0,-0.32513427734375,0.05841064453125,0.96002197265625,2.04864501953125,-6.228179931640625,-1.07666015625,383589.7435897435,104417802.1978022,49153479.853479855,69.09209,1.0,1.0,1.0,1.0,1.0,40.0,,0 days 00:00:00.001000
2023-11-09 12:52:23.576,0.8182086,0.3268887,0.17396313,1.2736611,0.71524745,0.29819155,-0.20921156,0.7692174,0.39979216,0.50683683,0.29227164,0.37898508,0.37284663,-0.16352378,-0.12073084,0.4308429,0.12967451,-0.5253573,-0.46391582,0.08053243,773.22345,822.381,806.6667,768.3883,816.337,0.0,0.0,-0.32513427734375,0.05841064453125,0.96002197265625,2.04864501953125,-6.228179931640625,-1.07666015625,383589.7435897435,104417802.1978022,49153479.853479855,69.09209,1.0,1.0,1.0,1.0,1.0,40.0,,0 days 00:00:00
2023-11-09 12:52:23.577,0.8182086,0.3268887,0.17396313,1.2736611,0.71524745,0.29819155,-0.20921156,0.7692174,0.39979216,0.50683683,0.29227164,0.37898508,0.37284663,-0.16352378,-0.12073084,0.4308429,0.12967451,-0.5253573,-0.46391582,0.08053243,807.0696,828.4249,805.8608,790.9524,837.6923,0.0,0.0,-0.32513427734375,0.05841064453125,0.96002197265625,2.04864501953125,-6.228179931640625,-1.07666015625,383589.7435897435,104417802.1978022,49153479.853479855,69.09209,1.0,1.0,1.0,1.0,1.0,40.0,,0 days 00:00:00.001000
2023-11-09 12:52:23.577,0.8182086,0.3268887,0.17396313,1.2736611,0.71524745,0.29819155,-0.20921156,0.7692174,0.39979216,0.50683683,0.29227164,0.37898508,0.37284663,-0.16352378,-0.12073084,0.4308429,0.12967451,-0.5253573,-0.46391582,0.08053243,812.3077,824.3956,812.3077,822.381,857.4359,0.0,0.0,-0.32513427734375,0.05841064453125,0.96002197265625,2.04864501953125,-6.228179931640625,-1.07666015625,383589.7435897435,104417802.1978022,49153479.853479855,69.09209,1.0,1.0,1.0,1.0,1.0,40.0,,0 days 00:00:00
2023-11-09 12:52:23.577,0.8182086,0.3268887,0.17396313,1.2736611,0.71524745,0.29819155,-0.20921156,0.7692174,0.39979216,0.50683683,0.29227164,0.37898508,0.37284663,-0.16352378,-0.12073084,0.4308429,0.12967451,-0.5253573,-0.46391582,0.08053243,793.36993,820.7692,818.7546,832.4542,1059.3041,0.0,0.0,-0.32513427734375,0.05841064453125,0.96002197265625,2.04864501953125,-6.228179931640625,-1.07666015625,383589.7435897435,104417802.1978022,49153479.853479855,69.09209,1.0,1.0,1.0,1.0,1.0,40.0,,0 days 00:00:00
2023-11-09 12:52:23.578,0.8182086,0.3268887,0.17396313,1.2736611,0.71524745,0.29819155,-0.20921156,0.7692174,0.39979216,0.50683683,0.29227164,0.37898508,0.37284663,-0.16352378,-0.12073084,0.4308429,0.12967451,-0.5253573,-0.46391582,0.08053243,759.92676,821.978,817.5458,796.99634,1141.9048,0.0,0.0,-0.32513427734375,0.05841064453125,0.96002197265625,2.04864501953125,-6.228179931640625,-1.07666015625,383589.7435897435,104417802.1978022,49153479.853479855,69.09209,1.0,1.0,1.0,1.0,1.0,40.0,,0 days 00:00:00.001000
2023-11-09 12:52:23.578,0.8182086,0.3268887,0.17396313,1.2736611,0.71524745,0.29819155,-0.20921156,0.7692174,0.39979216,0.50683683,0.29227164,0.37898508,0.37284663,-0.16352378,-0.12073084,0.4308429,0.12967451,-0.5253573,-0.46391582,0.08053243,755.89746,825.2015,815.9341,782.0879,815.9341,0.0,0.0,-0.32513427734375,0.05841064453125,0.96002197265625,2.04864501953125,-6.228179931640625,-1.07666015625,383589.7435897435,104417802.1978022,49153479.853479855,69.09209,1.0,1.0,1.0,1.0,1.0,40.0,,0 days 00:00:00
2023-11-09 12:52:23.578,0.8182086,0.3268887,0.17396313,1.2736611,0.71524745,0.29819155,-0.20921156,0.7692174,0.39979216,0.50683683,0.29227164,0.37898508,0.37284663,-0.16352378,-0.12073084,0.4308429,0.12967451,-0.5253573,-0.46391582,0.08053243,799.41394,826.8132,816.337,810.696,729.304,0.0,0.0,-0.32513427734375,0.05841064453125,0.96002197265625,2.04864501953125,-6.228179931640625,-1.07666015625,383589.7435897435,104417802.1978022,49153479.853479855,69.09209,1.0,1.0,1.0,1.0,1.0,40.0,,0 days 00:00:00
2023-11-09 12:52:23.604,0.8182086,0.3268887,0.17396313,1.2736611,0.71524745,0.29819155,-0.20921156,0.7692174,0.39979216,0.50683683,0.29227164,0.37898508,0.37284663,-0.16352378,-0.12073084,0.4308429,0.12967451,-0.5253573,-0.46391582,0.08053243,803.8461,826.8132,813.91943,801.8315,797.3993,0.0,0.0,-0.3294677734375,0.05487060546875,0.96331787109375,2.250518798828125,-5.480499267578125,-1.443023681640625,383589.7435897435,104417802.1978022,49153479.853479855,69.09209,1.0,1.0,1.0,1.0,1.0,40.0,,0 days 00:00:00.026000
2023-11-09 12:52:23.604,0.8182086,0.3268887,0.17396313,1.2736611,0.71524745,0.29819155,-0.20921156,0.7692174,0.39979216,0.50683683,0.29227164,0.37898508,0.37284663,-0.16352378,-0.12073084,0.4308429,0.12967451,-0.5253573,-0.46391582,0.08053243,768.3883,830.4396,817.9487,767.98535,685.78754,0.0,0.0,-0.3294677734375,0.05487060546875,0.96331787109375,2.250518798828125,-5.480499267578125,-1.443023681640625,383589.7435897435,104417802.1978022,49153479.853479855,69.09209,1.0,1.0,1.0,1.0,1.0,40.0,,0 days 00:00:00
2023-11-09 12:52:23.605,0.8182086,0.3268887,0.17396313,1.2736611,0.71524745,0.29819155,-0.20921156,0.7692174,0.39979216,0.50683683,0.29227164,0.37898508,0.37284663,-0.16352378,-0.12073084,0.4308429,0.12967451,-0.5253573,-0.46391582,0.08053243,761.9414,830.0366,821.1722,775.64105,637.4359,0.0,0.0,-0.3294677734375,0.05487060546875,0.96331787109375,2.250518798828125,-5.480499267578125,-1.443023681640625,383589.7435897435,104417802.1978022,49153479.853479855,69.09209,1.0,1.0,1.0,1.0,1.0,40.0,,0 days 00:00:00.001000
2023-11-09 12:52:23.605,0.8182086,0.3268887,0.17396313,1.2736611,0.71524745,0.29819155,-0.20921156,0.7692174,0.39979216,0.50683683,0.29227164,0.37898508,0.37284663,-0.16352378,-0.12073084,0.4308429,0.12967451,-0.5253573,-0.46391582,0.08053243,782.0879,822.7839,816.7399,806.26373,726.8865,0.0,0.0,-0.3294677734375,0.05487060546875,0.96331787109375,2.250518798828125,-5.480499267578125,-1.443023681640625,383589.7435897435,104417802.1978022,49153479.853479855,69.09209,1.0,1.0,1.0,1.0,1.0,40.0,,0 days 00:00:00
2023-11-09 12:52:23.606,0.8182086,0.3268887,0.17396313,1.2736611,0.71524745,0.29819155,-0.20921156,0.7692174,0.39979216,0.50683683,0.29227164,0.37898508,0.37284663,-0.16352378,-0.12073084,0.4308429,0.12967451,-0.5253573,-0.46391582,0.08053243,791.3553,819.15753,814.3223,812.3077,783.69965,0.0,0.0,-0.3294677734375,0.05487060546875,0.96331787109375,2.250518798828125,-5.480499267578125,-1.443023681640625,383589.7435897435,104417802.1978022,49153479.853479855,69.09209,1.0,1.0,1.0,1.0,1.0,40.0,,0 days 00:00:00.001000
2023-11-09 12:52:23.606,0.7861278,0.24296618,0.17439261,1.2896261,0.68424654,0.23758517,-0.19963333,0.7574569,0.39979216,0.50553906,0.2977722,0.39274272,0.3551384,-0.15828755,-0.12272244,0.42023507,0.15606725,-0.52881837,-0.4808133,0.064347334,772.01465,823.1868,821.5751,794.57874,729.707,0.0,0.0,-0.3294677734375,0.05487060546875,0.96331787109375,2.250518798828125,-5.480499267578125,-1.443023681640625,383589.7435897435,104417802.1978022,49153479.853479855,69.09209,1.0,1.0,1.0,1.0,1.0,40.0,,0 days 00:00:00
2023-11-09 12:52:23.608,0.7861278,0.24296618,0.17439261,1.2896261,0.68424654,0.23758517,-0.19963333,0.7574569,0.39979216,0.50553906,0.2977722,0.39274272,0.3551384,-0.15828755,-0.12272244,0.42023507,0.15606725,-0.52881837,-0.4808133,0.064347334,764.7619,821.978,823.9927,778.46155,693.44324,0.0,0.0,-0.3294677734375,0.05487060546875,0.96331787109375,2.250518798828125,-5.480499267578125,-1.443023681640625,383589.7435897435,104417802.1978022,49153479.853479855,69.09209,1.0,1.0,1.0,1.0,1.0,40.0,,0 days 00:00:00.002000
2023-11-09 12:52:23.608,0.7861278,0.24296618,0.17439261,1.2896261,0.68424654,0.23758517,-0.19963333,0.7574569,0.39979216,0.50553906,0.2977722,0.39274272,0.3551384,-0.15828755,-0.12272244,0.42023507,0.15606725,-0.52881837,-0.4808133,0.064347334,799.41394,818.3516,823.1868,798.20514,754.2857,0.0,0.0,-0.3294677734375,0.05487060546875,0.96331787109375,2.250518798828125,-5.480499267578125,-1.443023681640625,383589.7435897435,104417802.1978022,49153479.853479855,69.09209,1.0,1.0,1.0,1.0,1.0,40.0,,0 days 00:00:00
2023-11-09 12:52:23.609,0.7861278,0.24296618,0.17439261,1.2896261,0.68424654,0.23758517,-0.19963333,0.7574569,0.39979216,0.50553906,0.2977722,0.39274272,0.3551384,-0.15828755,-0.12272244,0.42023507,0.15606725,-0.52881837,-0.4808133,0.064347334,803.0403,817.5458,832.4542,821.5751,787.72894,0.0,0.0,-0.3294677734375,0.05487060546875,0.96331787109375,2.250518798828125,-5.480499267578125,-1.443023681640625,383589.7435897435,104417802.1978022,49153479.853479855,69.09209,1.0,1.0,1.0,1.0,1.0,40.0,,0 days 00:00:00.001000
2023-11-09 12:52:23.609,0.7861278,0.24296618,0.17439261,1.2896261,0.68424654,0.23758517,-0.19963333,0.7574569,0.39979216,0.50553906,0.2977722,0.39274272,0.3551384,-0.15828755,-0.12272244,0.42023507,0.15606725,-0.52881837,-0.4808133,0.064347334,779.67035,821.1722,832.0513,813.91943,791.75824,0.0,0.0,-0.3294677734375,0.05487060546875,0.96331787109375,2.250518798828125,-5.480499267578125,-1.443023681640625,383589.7435897435,104417802.1978022,49153479.853479855,69.09209,1.0,1.0,1.0,1.0,1.0,40.0,,0 days 00:00:00
2023-11-09 12:52:23.609,0.7861278,0.24296618,0.17439261,1.2896261,0.68424654,0.23758517,-0.19963333,0.7574569,0.39979216,0.50553906,0.2977722,0.39274272,0.3551384,-0.15828755,-0.12272244,0.42023507,0.15606725,-0.52881837,-0.4808133,0.064347334,776.04395,823.5897,823.9927,791.3553,709.5604,0.0,0.0,-0.3294677734375,0.05487060546875,0.96331787109375,2.250518798828125,-5.480499267578125,-1.443023681640625,383589.7435897435,104417802.1978022,49153479.853479855,69.09209,1.0,1.0,1.0,1.0,1.0,40.0,,0 days 00:00:00
2023-11-09 12:52:23.610,0.7861278,0.24296618,0.17439261,1.2896261,0.68424654,0.23758517,-0.19963333,0.7574569,0.39979216,0.50553906,0.2977722,0.39274272,0.3551384,-0.15828755,-0.12272244,0.42023507,0.15606725,-0.52881837,-0.4808133,0.064347334,792.5641,822.381,824.3956,789.34064,824.7985,0.0,0.0,-0.3294677734375,0.05487060546875,0.96331787109375,2.250518798828125,-5.480499267578125,-1.443023681640625,383589.7435897435,104417802.1978022,49153479.853479855,69.09209,1.0,1.0,1.0,1.0,1.0,40.0,,0 days 00:00:00.001000
2023-11-09 12:52:23.634,0.7861278,0.24296618,0.17439261,1.2896261,0.68424654,0.23758517,-0.19963333,0.7574569,0.39979216,0.50553906,0.2977722,0.39274272,0.3551384,-0.15828755,-0.12272244,0.42023507,0.15606725,-0.52881837,-0.4808133,0.064347334,822.7839,818.3516,827.2161,814.7253,1104.0293,0.0,0.0,-0.32794189453125,0.05047607421875,0.94549560546875,3.850555419921875,-5.09918212890625,-0.8673095703125,383589.7435897435,104412967.03296705,49192967.03296703,69.45503,1.0,1.0,1.0,1.0,1.0,40.0,,0 days 00:00:00.024000
2023-11-09 12:52:23.634,0.7861278,0.24296618,0.17439261,1.2896261,0.68424654,0.23758517,-0.19963333,0.7574569,0.39979216,0.50553906,0.2977722,0.39274272,0.3551384,-0.15828755,-0.12272244,0.42023507,0.15606725,-0.52881837,-0.4808133,0.064347334,815.5311,822.381,828.4249,811.0989,921.0989,0.0,0.0,-0.32794189453125,0.05047607421875,0.94549560546875,3.850555419921875,-5.09918212890625,-0.8673095703125,383589.7435897435,104412967.03296705,49192967.03296703,69.45503,1.0,1.0,1.0,1.0,1.0,40.0,,0 days 00:00:00
2023-11-09 12:52:23.635,0.7861278,0.24296618,0.17439261,1.2896261,0.68424654,0.23758517,-0.19963333,0.7574569,0.39979216,0.50553906,0.2977722,0.39274272,0.3551384,-0.15828755,-0.12272244,0.42023507,0.15606725,-0.52881837,-0.4808133,0.064347334,767.1795,822.7839,827.2161,785.31134,745.82416,0.0,0.0,-0.32794189453125,0.05047607421875,0.94549560546875,3.850555419921875,-5.09918212890625,-0.8673095703125,383589.7435897435,104412967.03296705,49192967.03296703,69.45503,1.0,1.0,1.0,1.0,1.0,40.0,,0 days 00:00:00.001000
2023-11-09 12:52:23.635,0.7861278,0.24296618,0.17439261,1.2896261,0.68424654,0.23758517,-0.19963333,0.7574569,0.39979216,0.50553906,0.2977722,0.39274272,0.3551384,-0.15828755,-0.12272244,0.42023507,0.15606725,-0.52881837,-0.4808133,0.064347334,750.65936,818.3516,824.3956,776.8498,748.24176,0.0,0.0,-0.32794189453125,0.05047607421875,0.94549560546875,3.850555419921875,-5.09918212890625,-0.8673095703125,383589.7435897435,104412967.03296705,49192967.03296703,69.45503,1.0,1.0,1.0,1.0,1.0,40.0,,0 days 00:00:00
2023-11-09 12:52:23.635,0.7861278,0.24296618,0.17439261,1.2896261,0.68424654,0.23758517,-0.19963333,0.7574569,0.39979216,0.50553906,0.2977722,0.39274272,0.3551384,-0.15828755,-0.12272244,0.42023507,0.15606725,-0.52881837,-0.4808133,0.064347334,784.90845,819.9634,825.2015,793.7729,832.0513,0.0,0.0,-0.32794189453125,0.05047607421875,0.94549560546875,3.850555419921875,-5.09918212890625,-0.8673095703125,383589.7435897435,104412967.03296705,49192967.03296703,69.45503,1.0,1.0,1.0,1.0,1.0,40.0,,0 days 00:00:00
2023-11-09 12:52:23.635,0.7861278,0.24296618,0.17439261,1.2896261,0.68424654,0.23758517,-0.19963333,0.7574569,0.39979216,0.50553906,0.2977722,0.39274272,0.3551384,-0.15828755,-0.12272244,0.42023507,0.15606725,-0.52881837,-0.4808133,0.064347334,802.23444,821.1722,825.2015,800.6227,923.5165,0.0,0.0,-0.32794189453125,0.05047607421875,0.94549560546875,3.850555419921875,-5.09918212890625,-0.8673095703125,383589.7435897435,104412967.03296705,49192967.03296703,69.45503,1.0,1.0,1.0,1.0,1.0,40.0,,0 days 00:00:00
2023-11-09 12:52:23.635,0.7861278,0.24296618,0.17439261,1.2896261,0.68424654,0.23758517,-0.19963333,0.7574569,0.39979216,0.50553906,0.2977722,0.39274272,0.3551384,-0.15828755,-0.12272244,0.42023507,0.15606725,-0.52881837,-0.4808133,0.064347334,784.5055,827.619,827.2161,788.5348,853.8095,0.0,0.0,-0.32794189453125,0.05047607421875,0.94549560546875,3.850555419921875,-5.09918212890625,-0.8673095703125,383589.7435897435,104412967.03296705,49192967.03296703,69.45503,1.0,1.0,1.0,1.0,1.0,40.0,,0 days 00:00:00
2023-11-09 12:52:23.636,0.7861278,0.24296618,0.17439261,1.2896261,0.68424654,0.23758517,-0.19963333,0.7574569,0.39979216,0.50553906,0.2977722,0.39274272,0.3551384,-0.15828755,-0.12272244,0.42023507,0.15606725,-0.52881837,-0.4808133,0.064347334,780.4762,826.4103,828.022,788.93774,990.0,0.0,0.0,-0.32794189453125,0.05047607421875,0.94549560546875,3.850555419921875,-5.09918212890625,-0.8673095703125,383589.7435897435,104412967.03296705,49192967.03296703,69.45503,1.0,1.0,1.0,1.0,1.0,40.0,,0 days 00:00:00.001000
2023-11-09 12:52:23.636,0.7861278,0.24296618,0.17439261,1.2896261,0.68424654,0.23758517,-0.19963333,0.7574569,0.39979216,0.50553906,0.2977722,0.39274272,0.3551384,-0.15828755,-0.12272244,0.42023507,0.15606725,-0.52881837,-0.4808133,0.064347334,810.696,828.022,822.7839,806.6667,1100.0,0.0,0.0,-0.32794189453125,0.05047607421875,0.94549560546875,3.850555419921875,-5.09918212890625,-0.8673095703125,383589.7435897435,104412967.03296705,49192967.03296703,69.45503,1.0,1.0,1.0,1.0,1.0,40.0,,0 days 00:00:00
2023-11-09 12:52:23.636,0.7861278,0.24296618,0.17439261,1.2896261,0.68424654,0.23758517,-0.19963333,0.7574569,0.39979216,0.50553906,0.2977722,0.39274272,0.3551384,-0.15828755,-0.12272244,0.42023507,0.15606725,-0.52881837,-0.4808133,0.064347334,822.7839,833.663,831.6484,816.337,794.57874,0.0,0.0,-0.32794189453125,0.05047607421875,0.94549560546875,3.850555419921875,-5.09918212890625,-0.8673095703125,383589.7435897435,104412967.03296705,49192967.03296703,69.45503,1.0,1.0,1.0,1.0,1.0,40.0,,0 days 00:00:00
2023-11-09 12:52:23.636,0.7861278,0.24296618,0.17439261,1.2896261,0.68424654,0.23758517,-0.19963333,0.7574569,0.39979216,0.50553906,0.2977722,0.39274272,0.3551384,-0.15828755,-0.12272244,0.42023507,0.15606725,-0.52881837,-0.4808133,0.064347334,786.1172,824.7985,830.84247,788.93774,677.326,0.0,0.0,-0.32794189453125,0.05047607421875,0.94549560546875,3.850555419921875,-5.09918212890625,-0.8673095703125,383589.7435897435,104412967.03296705,49192967.03296703,69.45503,1.0,1.0,1.0,1.0,1.0,40.0,,0 days 00:00:00
2023-11-09 12:52:23.636,0.7861278,0.24296618,0.17439261,1.2896261,0.68424654,0.23758517,-0.19963333,0.7574569,0.39979216,0.50553906,0.2977722,0.39274272,0.3551384,-0.15828755,-0.12272244,0.42023507,0.15606725,-0.52881837,-0.4808133,0.064347334,778.86444,824.3956,827.2161,770.40295,677.326,0.0,0.0,-0.32794189453125,0.05047607421875,0.94549560546875,3.850555419921875,-5.09918212890625,-0.8673095703125,383589.7435897435,104412967.03296705,49192967.03296703,69.45503,1.0,1.0,1.0,1.0,1.0,40.0,,0 days 00:00:00
2023-11-09 12:52:23.707,0.7861278,0.24296618,0.17439261,1.2896261,0.68424654,0.23758517,-0.19963333,0.7574569,0.39979216,0.50553906,0.2977722,0.39274272,0.3551384,-0.15828755,-0.12272244,0.42023507,0.15606725,-0.52881837,-0.4808133,0.064347334,805.8608,827.2161,832.4542,794.9817,679.7436,0.0,0.0,-0.32489013671875,0.06390380859375,0.9569091796875,5.263671875,-5.4730224609375,0.3289794921875,383589.7435897435,104412967.03296705,49192967.03296703,69.45503,1.0,1.0,1.0,1.0,1.0,40.0,,0 days 00:00:00.071000
2023-11-09 12:52:23.708,0.7861278,0.24296618,0.17439261,1.2896261,0.68424654,0.23758517,-0.19963333,0.7574569,0.39979216,0.50553906,0.2977722,0.39274272,0.3551384,-0.15828755,-0.12272244,0.42023507,0.15606725,-0.52881837,-0.4808133,0.064347334,820.3663,819.5604,835.2747,811.0989,802.6374,0.0,0.0,-0.32489013671875,0.06390380859375,0.9569091796875,5.263671875,-5.4730224609375,0.3289794921875,383589.7435897435,104412967.03296705,49192967.03296703,69.45503,1.0,1.0,1.0,1.0,1.0,40.0,,0 days 00:00:00.001000
2023-11-09 12:52:23.708,0.7861278,0.24296618,0.17439261,1.2896261,0.68424654,0.23758517,-0.19963333,0.7574569,0.39979216,0.50553906,0.2977722,0.39274272,0.3551384,-0.15828755,-0.12272244,0.42023507,0.15606725,-0.52881837,-0.4808133,0.064347334,792.1612,813.1135,834.87177,805.8608,873.95605,0.0,0.0,-0.32489013671875,0.06390380859375,0.9569091796875,5.263671875,-5.4730224609375,0.3289794921875,383589.7435897435,104412967.03296705,49192967.03296703,69.45503,1.0,1.0,1.0,1.0,1.0,40.0,,0 days 00:00:00
2023-11-09 12:52:23.709,0.7861278,0.24296618,0.17439261,1.2896261,0.68424654,0.23758517,-0.19963333,0.7574569,0.39979216,0.50553906,0.2977722,0.39274272,0.3551384,-0.15828755,-0.12272244,0.42023507,0.15606725,-0.52881837,-0.4808133,0.064347334,764.35895,819.9634,833.2601,788.1319,784.10254,0.0,0.0,-0.32489013671875,0.06390380859375,0.9569091796875,5.263671875,-5.4730224609375,0.3289794921875,383589.7435897435,104412967.03296705,49192967.03296703,69.45503,1.0,1.0,1.0,1.0,1.0,40.0,,0 days 00:00:00.001000
2023-11-09 12:52:23.710,0.7861278,0.24296618,0.17439261,1.2896261,0.68424654,0.23758517,-0.19963333,0.7574569,0.39979216,0.50553906,0.2977722,0.39274272,0.3551384,-0.15828755,-0.12272244,0.42023507,0.15606725,-0.52881837,-0.4808133,0.064347334,791.3553,828.8278,830.4396,790.9524,683.36993,0.0,0.0,-0.32489013671875,0.06390380859375,0.9569091796875,5.263671875,-5.4730224609375,0.3289794921875,383589.7435897435,104412967.03296705,49192967.03296703,69.45503,1.0,1.0,1.0,1.0,1.0,40.0,,0 days 00:00:00.001000
2023-11-09 12:52:23.710,0.7861278,0.24296618,0.17439261,1.2896261,0.68424654,0.23758517,-0.19963333,0.7574569,0.39979216,0.50553906,0.2977722,0.39274272,0.3551384,-0.15828755,-0.12272244,0.42023507,0.15606725,-0.52881837,-0.4808133,0.064347334,828.022,824.7985,834.87177,819.5604,746.2271,0.0,0.0,-0.32489013671875,0.06390380859375,0.9569091796875,5.263671875,-5.4730224609375,0.3289794921875,383589.7435897435,104412967.03296705,49192967.03296703,69.45503,1.0,1.0,1.0,1.0,1.0,40.0,,0 days 00:00:00
2023-11-09 12:52:23.711,0.7861278,0.24296618,0.17439261,1.2896261,0.68424654,0.23758517,-0.19963333,0.7574569,0.39979216,0.50553906,0.2977722,0.39274272,0.3551384,-0.15828755,-0.12272244,0.42023507,0.15606725,-0.52881837,-0.4808133,0.064347334,806.6667,815.9341,834.87177,819.5604,927.1429,0.0,0.0,-0.32489013671875,0.06390380859375,0.9569091796875,5.263671875,-5.4730224609375,0.3289794921875,383589.7435897435,104412967.03296705,49192967.03296703,69.45503,1.0,1.0,1.0,1.0,1.0,40.0,,0 days 00:00:00.001000
2023-11-09 12:52:23.711,0.75699466,0.11602576,0.17718928,1.2850012,0.6545238,0.13549696,-0.2026144,0.727444,0.39979216,0.4776508,0.2412464,0.44455892,0.3548341,-0.14901266,-0.12621732,0.42171106,0.19189069,-0.5310072,-0.47602302,0.05794859,769.19415,812.3077,830.0366,780.07324,938.8278,0.0,0.0,-0.32489013671875,0.06390380859375,0.9569091796875,5.263671875,-5.4730224609375,0.3289794921875,383589.7435897435,104412967.03296705,49192967.03296703,69.45503,1.0,1.0,1.0,1.0,1.0,40.0,,0 days 00:00:00
2023-11-09 12:52:23.714,0.75699466,0.11602576,0.17718928,1.2850012,0.6545238,0.13549696,-0.2026144,0.727444,0.39979216,0.4776508,0.2412464,0.44455892,0.3548341,-0.14901266,-0.12621732,0.42171106,0.19189069,-0.5310072,-0.47602302,0.05794859,779.67035,824.3956,835.2747,771.6117,731.31866,0.0,0.0,-0.32489013671875,0.06390380859375,0.9569091796875,5.263671875,-5.4730224609375,0.3289794921875,383589.7435897435,104412967.03296705,49192967.03296703,69.45503,1.0,1.0,1.0,1.0,1.0,40.0,,0 days 00:00:00.003000
2023-11-09 12:52:23.715,0.75699466,0.11602576,0.17718928,1.2850012,0.6545238,0.13549696,-0.2026144,0.727444,0.39979216,0.4776508,0.2412464,0.44455892,0.3548341,-0.14901266,-0.12621732,0.42171106,0.19189069,-0.5310072,-0.47602302,0.05794859,817.5458,824.3956,840.9158,809.0842,690.2198,0.0,0.0,-0.32489013671875,0.06390380859375,0.9569091796875,5.263671875,-5.4730224609375,0.3289794921875,383589.7435897435,104412967.03296705,49192967.03296703,69.45503,1.0,1.0,1.0,1.0,1.0,40.0,,0 days 00:00:00.001000
2023-11-09 12:52:23.715,0.75699466,0.11602576,0.17718928,1.2850012,0.6545238,0.13549696,-0.2026144,0.727444,0.39979216,0.4776508,0.2412464,0.44455892,0.3548341,-0.14901266,-0.12621732,0.42171106,0.19189069,-0.5310072,-0.47602302,0.05794859,827.619,820.3663,839.707,818.7546,764.7619,0.0,0.0,-0.32489013671875,0.06390380859375,0.9569091796875,5.263671875,-5.4730224609375,0.3289794921875,383589.7435897435,104412967.03296705,49192967.03296703,69.45503,1.0,1.0,1.0,1.0,1.0,40.0,,0 days 00:00:00
2023-11-09 12:52:23.715,0.75699466,0.11602576,0.17718928,1.2850012,0.6545238,0.13549696,-0.2026144,0.727444,0.39979216,0.4776508,0.2412464,0.44455892,0.3548341,-0.14901266,-0.12621732,0.42171106,0.19189069,-0.5310072,-0.47602302,0.05794859,794.57874,826.8132,836.4835,791.3553,739.7802,0.0,0.0,-0.32489013671875,0.06390380859375,0.9569091796875,5.263671875,-5.4730224609375,0.3289794921875,383589.7435897435,104412967.03296705,49192967.03296703,69.45503,1.0,1.0,1.0,1.0,1.0,40.0,,0 days 00:00:00
2023-11-09 12:52:23.753,0.75699466,0.11602576,0.17718928,1.2850012,0.6545238,0.13549696,-0.2026144,0.727444,0.39979216,0.4776508,0.2412464,0.44455892,0.3548341,-0.14901266,-0.12621732,0.42171106,0.19189069,-0.5310072,-0.47602302,0.05794859,776.4469,827.619,834.87177,784.90845,688.20514,0.0,0.0,-0.32489013671875,0.06390380859375,0.9569091796875,5.263671875,-5.4730224609375,0.3289794921875,382783.8827838828,104367032.96703295,49203443.223443225,69.79674,1.0,1.0,1.0,1.0,1.0,40.0,,0 days 00:00:00.038000
2023-11-09 12:52:23.753,0.75699466,0.11602576,0.17718928,1.2850012,0.6545238,0.13549696,-0.2026144,0.727444,0.39979216,0.4776508,0.2412464,0.44455892,0.3548341,-0.14901266,-0.12621732,0.42171106,0.19189069,-0.5310072,-0.47602302,0.05794859,817.1429,822.381,836.4835,819.15753,743.00366,0.0,0.0,-0.32489013671875,0.06390380859375,0.9569091796875,5.263671875,-5.4730224609375,0.3289794921875,382783.8827838828,104367032.96703295,49203443.223443225,69.79674,1.0,1.0,1.0,1.0,1.0,40.0,,0 days 00:00:00
2023-11-09 12:52:23.754,0.75699466,0.11602576,0.17718928,1.2850012,0.6545238,0.13549696,-0.2026144,0.727444,0.39979216,0.4776508,0.2412464,0.44455892,0.3548341,-0.14901266,-0.12621732,0.42171106,0.19189069,-0.5310072,-0.47602302,0.05794859,833.663,824.7985,841.7216,840.5128,790.14655,0.0,0.0,-0.32489013671875,0.06390380859375,0.9569091796875,5.263671875,-5.4730224609375,0.3289794921875,382783.8827838828,104367032.96703295,49203443.223443225,69.79674,1.0,1.0,1.0,1.0,1.0,40.0,,0 days 00:00:00.001000
2023-11-09 12:52:23.755,0.75699466,0.11602576,0.17718928,1.2850012,0.6545238,0.13549696,-0.2026144,0.727444,0.39979216,0.4776508,0.2412464,0.44455892,0.3548341,-0.14901266,-0.12621732,0.42171106,0.19189069,-0.5310072,-0.47602302,0.05794859,801.8315,826.0073,840.9158,818.3516,784.90845,0.0,0.0,-0.32489013671875,0.06390380859375,0.9569091796875,5.263671875,-5.4730224609375,0.3289794921875,382783.8827838828,104367032.96703295,49203443.223443225,69.79674,1.0,1.0,1.0,1.0,1.0,40.0,,0 days 00:00:00.001000
2023-11-09 12:52:23.755,0.75699466,0.11602576,0.17718928,1.2850012,0.6545238,0.13549696,-0.2026144,0.727444,0.39979216,0.4776508,0.2412464,0.44455892,0.3548341,-0.14901266,-0.12621732,0.42171106,0.19189069,-0.5310072,-0.47602302,0.05794859,792.96704,824.7985,835.2747,789.34064,726.4835,0.0,0.0,-0.32489013671875,0.06390380859375,0.9569091796875,5.263671875,-5.4730224609375,0.3289794921875,382783.8827838828,104367032.96703295,49203443.223443225,69.79674,1.0,1.0,1.0,1.0,1.0,40.0,,0 days 00:00:00
2023-11-09 12:52:23.756,0.75699466,0.11602576,0.17718928,1.2850012,0.6545238,0.13549696,-0.2026144,0.727444,0.39979216,0.4776508,0.2412464,0.44455892,0.3548341,-0.14901266,-0.12621732,0.42171106,0.19189069,-0.5310072,-0.47602302,0.05794859,809.4872,826.4103,834.0659,803.44324,707.1429,0.0,0.0,-0.32489013671875,0.06390380859375,0.9569091796875,5.263671875,-5.4730224609375,0.3289794921875,382783.8827838828,104367032.96703295,49203443.223443225,69.79674,1.0,1.0,1.0,1.0,1.0,40.0,,0 days 00:00:00.001000
2023-11-09 12:52:23.756,0.75699466,0.11602576,0.17718928,1.2850012,0.6545238,0.13549696,-0.2026144,0.727444,0.39979216,0.4776508,0.2412464,0.44455892,0.3548341,-0.14901266,-0.12621732,0.42171106,0.19189069,-0.5310072,-0.47602302,0.05794859,837.28937,823.9927,832.8571,828.8278,992.01465,0.0,0.0,-0.32489013671875,0.06390380859375,0.9569091796875,5.263671875,-5.4730224609375,0.3289794921875,382783.8827838828,104367032.96703295,49203443.223443225,69.79674,1.0,1.0,1.0,1.0,1.0,40.0,,0 days 00:00:00
2023-11-09 12:52:23.757,0.75699466,0.11602576,0.17718928,1.2850012,0.6545238,0.13549696,-0.2026144,0.727444,0.39979216,0.4776508,0.2412464,0.44455892,0.3548341,-0.14901266,-0.12621732,0.42171106,0.19189069,-0.5310072,-0.47602302,0.05794859,810.293,822.7839,832.8571,817.1429,1226.5201,0.0,0.0,-0.32489013671875,0.06390380859375,0.9569091796875,5.263671875,-5.4730224609375,0.3289794921875,382783.8827838828,104367032.96703295,49203443.223443225,69.79674,1.0,1.0,1.0,1.0,1.0,40.0,,0 days 00:00:00.001000
2023-11-09 12:52:23.757,0.75699466,0.11602576,0.17718928,1.2850012,0.6545238,0.13549696,-0.2026144,0.727444,0.39979216,0.4776508,0.2412464,0.44455892,0.3548341,-0.14901266,-0.12621732,0.42171106,0.19189069,-0.5310072,-0.47602302,0.05794859,783.69965,828.8278,836.8865,788.93774,877.98535,0.0,0.0,-0.32489013671875,0.06390380859375,0.9569091796875,5.263671875,-5.4730224609375,0.3289794921875,382783.8827838828,104367032.96703295,49203443.223443225,69.79674,1.0,1.0,1.0,1.0,1.0,40.0,,0 days 00:00:00
2023-11-09 12:52:23.758,0.75699466,0.11602576,0.17718928,1.2850012,0.6545238,0.13549696,-0.2026144,0.727444,0.39979216,0.4776508,0.2412464,0.44455892,0.3548341,-0.14901266,-0.12621732,0.42171106,0.19189069,-0.5310072,-0.47602302,0.05794859,798.60803,823.9927,838.49817,799.41394,701.50183,0.0,0.0,-0.32489013671875,0.06390380859375,0.9569091796875,5.263671875,-5.4730224609375,0.3289794921875,382783.8827838828,104367032.96703295,49203443.223443225,69.79674,1.0,1.0,1.0,1.0,1.0,40.0,,0 days 00:00:00.001000
2023-11-09 12:52:23.758,0.75699466,0.11602576,0.17718928,1.2850012,0.6545238,0.13549696,-0.2026144,0.727444,0.39979216,0.4776508,0.2412464,0.44455892,0.3548341,-0.14901266,-0.12621732,0.42171106,0.19189069,-0.5310072,-0.47602302,0.05794859,828.022,818.3516,839.707,826.4103,805.4579,0.0,0.0,-0.32489013671875,0.06390380859375,0.9569091796875,5.263671875,-5.4730224609375,0.3289794921875,382783.8827838828,104367032.96703295,49203443.223443225,69.79674,1.0,1.0,1.0,1.0,1.0,40.0,,0 days 00:00:00
2023-11-09 12:52:23.759,0.75699466,0.11602576,0.17718928,1.2850012,0.6545238,0.13549696,-0.2026144,0.727444,0.39979216,0.4776508,0.2412464,0.44455892,0.3548341,-0.14901266,-0.12621732,0.42171106,0.19189069,-0.5310072,-0.47602302,0.05794859,819.15753,820.7692,840.5128,820.3663,776.04395,0.0,0.0,-0.32489013671875,0.06390380859375,0.9569091796875,5.263671875,-5.4730224609375,0.3289794921875,382783.8827838828,104367032.96703295,49203443.223443225,69.79674,1.0,1.0,1.0,1.0,1.0,40.0,,0 days 00:00:00.001000
2023-11-09 12:52:23.782,0.75699466,0.11602576,0.17718928,1.2850012,0.6545238,0.13549696,-0.2026144,0.727444,0.39979216,0.4776508,0.2412464,0.44455892,0.3548341,-0.14901266,-0.12621732,0.42171106,0.19189069,-0.5310072,-0.47602302,0.05794859,792.96704,823.1868,837.28937,796.99634,702.71063,0.0,0.0,-0.32318115234375,0.06878662109375,0.9393310546875,3.09539794921875,-5.016937255859375,1.084136962890625,382783.8827838828,104367032.96703295,49203443.223443225,69.79674,1.0,1.0,1.0,1.0,1.0,40.0,,0 days 00:00:00.023000
2023-11-09 12:52:23.782,0.75699466,0.11602576,0.17718928,1.2850012,0.6545238,0.13549696,-0.2026144,0.727444,0.39979216,0.4776508,0.2412464,0.44455892,0.3548341,-0.14901266,-0.12621732,0.42171106,0.19189069,-0.5310072,-0.47602302,0.05794859,799.011,826.4103,834.87177,796.1905,693.8461,0.0,0.0,-0.32318115234375,0.06878662109375,0.9393310546875,3.09539794921875,-5.016937255859375,1.084136962890625,382783.8827838828,104367032.96703295,49203443.223443225,69.79674,1.0,1.0,1.0,1.0,1.0,40.0,,0 days 00:00:00
2023-11-09 12:52:23.782,0.75699466,0.11602576,0.17718928,1.2850012,0.6545238,0.13549696,-0.2026144,0.727444,0.39979216,0.4776508,0.2412464,0.44455892,0.3548341,-0.14901266,-0.12621732,0.42171106,0.19189069,-0.5310072,-0.47602302,0.05794859,822.7839,823.5897,835.2747,808.2784,748.24176,0.0,0.0,-0.32318115234375,0.06878662109375,0.9393310546875,3.09539794921875,-5.016937255859375,1.084136962890625,382783.8827838828,104367032.96703295,49203443.223443225,69.79674,1.0,1.0,1.0,1.0,1.0,40.0,,0 days 00:00:00
2023-11-09 12:52:23.783,0.75699466,0.11602576,0.17718928,1.2850012,0.6545238,0.13549696,-0.2026144,0.727444,0.39979216,0.4776508,0.2412464,0.44455892,0.3548341,-0.14901266,-0.12621732,0.42171106,0.19189069,-0.5310072,-0.47602302,0.05794859,833.2601,820.7692,837.28937,819.9634,735.34796,0.0,0.0,-0.32318115234375,0.06878662109375,0.9393310546875,3.09539794921875,-5.016937255859375,1.084136962890625,382783.8827838828,104367032.96703295,49203443.223443225,69.79674,1.0,1.0,1.0,1.0,1.0,40.0,,0 days 00:00:00.001000
2023-11-09 12:52:23.783,0.75699466,0.11602576,0.17718928,1.2850012,0.6545238,0.13549696,-0.2026144,0.727444,0.39979216,0.4776508,0.2412464,0.44455892,0.3548341,-0.14901266,-0.12621732,0.42171106,0.19189069,-0.5310072,-0.47602302,0.05794859,788.5348,818.3516,837.28937,796.1905,661.6117,0.0,0.0,-0.32318115234375,0.06878662109375,0.9393310546875,3.09539794921875,-5.016937255859375,1.084136962890625,382783.8827838828,104367032.96703295,49203443.223443225,69.79674,1.0,1.0,1.0,1.0,1.0,40.0,,0 days 00:00:00
2023-11-09 12:52:23.783,0.75699466,0.11602576,0.17718928,1.2850012,0.6545238,0.13549696,-0.2026144,0.727444,0.39979216,0.4776508,0.2412464,0.44455892,0.3548341,-0.14901266,-0.12621732,0.42171106,0.19189069,-0.5310072,-0.47602302,0.05794859,767.1795,812.71063,831.6484,771.2088,792.5641,0.0,0.0,-0.32318115234375,0.06878662109375,0.9393310546875,3.09539794921875,-5.016937255859375,1.084136962890625,382783.8827838828,104367032.96703295,49203443.223443225,69.79674,1.0,1.0,1.0,1.0,1.0,40.0,,0 days 00:00:00
2023-11-09 12:52:23.784,0.75699466,0.11602576,0.17718928,1.2850012,0.6545238,0.13549696,-0.2026144,0.727444,0.39979216,0.4776508,0.2412464,0.44455892,0.3548341,-0.14901266,-0.12621732,0.42171106,0.19189069,-0.5310072,-0.47602302,0.05794859,790.54944,813.1135,829.2308,798.20514,936.8132,0.0,0.0,-0.32318115234375,0.06878662109375,0.9393310546875,3.09539794921875,-5.016937255859375,1.084136962890625,382783.8827838828,104367032.96703295,49203443.223443225,69.79674,1.0,1.0,1.0,1.0,1.0,40.0,,0 days 00:00:00.001000
2023-11-09 12:52:23.784,0.75699466,0.11602576,0.17718928,1.2850012,0.6545238,0.13549696,-0.2026144,0.727444,0.39979216,0.4776508,0.2412464,0.44455892,0.3548341,-0.14901266,-0.12621732,0.42171106,0.19189069,-0.5310072,-0.47602302,0.05794859,824.7985,820.7692,830.84247,814.3223,828.022,0.0,0.0,-0.32318115234375,0.06878662109375,0.9393310546875,3.09539794921875,-5.016937255859375,1.084136962890625,382783.8827838828,104367032.96703295,49203443.223443225,69.79674,1.0,1.0,1.0,1.0,1.0,40.0,,0 days 00:00:00
