TimeStamp,Delta_TP9,Delta_AF7,Delta_AF8,Delta_TP10,Theta_TP9,Theta_AF7,Theta_AF8,Theta_TP10,Alpha_TP9,Alpha_AF7,Alpha_AF8,Alpha_TP10,Beta_TP9,Beta_AF7,Beta_AF8,Beta_TP10,Gamma_TP9,Gamma_AF7,Gamma_AF8,Gamma_TP10,RAW_TP9,RAW_AF7,RAW_AF8,RAW_TP10,AUX_RIGHT,Mellow,Concentration,Accelerometer_X,Accelerometer_Y,Accelerometer_Z,Gyro_X,Gyro_Y,Gyro_Z,PPG_Ambient,PPG_IR,PPG_Red,Heart_Rate,HeadBandOn,HSI_TP9,HSI_AF7,HSI_AF8,HSI_TP10,Battery,Elements,TimeDifference
2023-11-16 11:26:59.830,1.2880565,0.93689436,0.48063272,0.0,0.9332792,0.7631749,0.49724618,0.0,1.0066987,0.5507151,0.56924134,0.0,1.3570634,0.8023955,0.61518604,0.0,1.1234303,0.61450726,0.3866863,0.0,796.1905,819.5604,790.9524,778.0586,653.5531,0.0,0.0,0.00714111328125,0.08526611328125,1.00146484375,2.489776611328125,-8.396453857421875,-0.321502685546875,2920439.560439561,112554578.75457875,52529230.76923077,100.15825,1.0,2.0,1.0,1.0,2.0,45.0,,0 days 00:00:00.056000
2023-11-16 11:26:59.831,1.2880565,0.93689436,0.48063272,0.0,0.9332792,0.7631749,0.49724618,0.0,1.0066987,0.5507151,0.56924134,0.0,1.3570634,0.8023955,0.61518604,0.0,1.1234303,0.61450726,0.3866863,0.0,811.0989,803.8461,803.0403,783.69965,691.8315,0.0,0.0,0.00714111328125,0.08526611328125,1.00146484375,2.489776611328125,-8.396453857421875,-0.321502685546875,2920439.560439561,112554578.75457875,52529230.76923077,100.15825,1.0,2.0,1.0,1.0,2.0,45.0,,0 days 00:00:00.001000
2023-11-16 11:26:59.832,1.2880565,0.93689436,0.48063272,0.0,0.9332792,0.7631749,0.49724618,0.0,1.0066987,0.5507151,0.56924134,0.0,1.3570634,0.8023955,0.61518604,0.0,1.1234303,0.61450726,0.3866863,0.0,817.5458,804.2491,811.9048,811.9048,865.09155,0.0,0.0,0.00714111328125,0.08526611328125,1.00146484375,2.489776611328125,-8.396453857421875,-0.321502685546875,2920439.560439561,112554578.75457875,52529230.76923077,100.15825,1.0,2.0,1.0,1.0,2.0,45.0,,0 days 00:00:00.001000
2023-11-16 11:26:59.832,1.2880565,0.93689436,0.48063272,0.0,0.9332792,0.7631749,0.49724618,0.0,1.0066987,0.5507151,0.56924134,0.0,1.3570634,0.8023955,0.61518604,0.0,1.1234303,0.61450726,0.3866863,0.0,805.8608,809.89014,822.7839,790.54944,835.2747,0.0,0.0,0.00714111328125,0.08526611328125,1.00146484375,2.489776611328125,-8.396453857421875,-0.321502685546875,2920439.560439561,112554578.75457875,52529230.76923077,100.15825,1.0,2.0,1.0,1.0,2.0,45.0,,0 days 00:00:00
2023-11-16 11:26:59.832,1.2880565,0.93689436,0.48063272,0.0,0.9332792,0.7631749,0.49724618,0.0,1.0066987,0.5507151,0.56924134,0.0,1.3570634,0.8023955,0.61518604,0.0,1.1234303,0.61450726,0.3866863,0.0,814.3223,819.5604,813.91943,771.2088,715.2015,0.0,0.0,0.00714111328125,0.08526611328125,1.00146484375,2.489776611328125,-8.396453857421875,-0.321502685546875,2920439.560439561,112554578.75457875,52529230.76923077,100.15825,1.0,2.0,1.0,1.0,2.0,45.0,,0 days 00:00:00
2023-11-16 11:26:59.833,1.2880565,0.93689436,0.43339983,0.0,0.9332792,0.7631749,0.45331395,0.0,1.0066987,0.5507151,0.55127597,0.0,1.3570634,0.8023955,0.60829407,0.0,1.1234303,0.61450726,0.36624536,0.0,813.5165,806.26373,799.011,774.43225,772.4176,0.0,0.0,0.00714111328125,0.08526611328125,1.00146484375,2.489776611328125,-8.396453857421875,-0.321502685546875,2920439.560439561,112554578.75457875,52529230.76923077,100.15825,1.0,2.0,1.0,1.0,2.0,45.0,,0 days 00:00:00.001000
2023-11-16 11:26:59.835,1.2880565,0.93689436,0.43339983,0.0,0.9332792,0.7631749,0.45331395,0.0,1.0066987,0.5507151,0.55127597,0.0,1.3570634,0.8023955,0.60829407,0.0,1.1234303,0.61450726,0.36624536,0.0,799.41394,792.1612,793.36993,788.93774,1043.5897,0.0,0.0,0.00714111328125,0.08526611328125,1.00146484375,2.489776611328125,-8.396453857421875,-0.321502685546875,2920439.560439561,112554578.75457875,52529230.76923077,100.15825,1.0,2.0,1.0,1.0,2.0,45.0,,0 days 00:00:00.002000
2023-11-16 11:26:59.835,1.2880565,0.93689436,0.43339983,0.0,0.9332792,0.7631749,0.45331395,0.0,1.0066987,0.5507151,0.55127597,0.0,1.3570634,0.8023955,0.60829407,0.0,1.1234303,0.61450726,0.36624536,0.0,793.36993,806.26373,803.0403,774.83514,996.4469,0.0,0.0,0.00714111328125,0.08526611328125,1.00146484375,2.489776611328125,-8.396453857421875,-0.321502685546875,2920439.560439561,112554578.75457875,52529230.76923077,100.15825,1.0,2.0,1.0,1.0,2.0,45.0,,0 days 00:00:00
2023-11-16 11:26:59.836,1.2880565,0.93689436,0.43339983,0.0,0.9332792,0.7631749,0.45331395,0.0,1.0066987,0.5507151,0.55127597,0.0,1.3570634,0.8023955,0.60829407,0.0,1.1234303,0.61450726,0.36624536,0.0,784.5055,810.696,817.1429,765.16486,695.8608,0.0,0.0,0.00714111328125,0.08526611328125,1.00146484375,2.489776611328125,-8.396453857421875,-0.321502685546875,2920439.560439561,112554578.75457875,52529230.76923077,100.15825,1.0,2.0,1.0,1.0,2.0,45.0,,0 days 00:00:00.001000
2023-11-16 11:26:59.836,1.2880565,0.93689436,0.43339983,0.0,0.9332792,0.7631749,0.45331395,0.0,1.0066987,0.5507151,0.55127597,0.0,1.3570634,0.8023955,0.60829407,0.0,1.1234303,0.61450726,0.36624536,0.0,809.0842,811.50183,814.3223,792.1612,748.6447,0.0,0.0,0.00714111328125,0.08526611328125,1.00146484375,2.489776611328125,-8.396453857421875,-0.321502685546875,2920439.560439561,112554578.75457875,52529230.76923077,100.15825,1.0,2.0,1.0,1.0,2.0,45.0,,0 days 00:00:00
2023-11-16 11:26:59.836,1.2880565,0.93689436,0.43339983,0.0,0.9332792,0.7631749,0.45331395,0.0,1.0066987,0.5507151,0.55127597,0.0,1.3570634,0.8023955,0.60829407,0.0,1.1234303,0.61450726,0.36624536,0.0,807.8755,813.91943,815.5311,794.57874,982.74725,0.0,0.0,0.00714111328125,0.08526611328125,1.00146484375,2.489776611328125,-8.396453857421875,-0.321502685546875,2920439.560439561,112554578.75457875,52529230.76923077,100.15825,1.0,2.0,1.0,1.0,2.0,45.0,,0 days 00:00:00
2023-11-16 11:26:59.837,1.2880565,0.93689436,0.43339983,0.0,0.9332792,0.7631749,0.45331395,0.0,1.0066987,0.5507151,0.55127597,0.0,1.3570634,0.8023955,0.60829407,0.0,1.1234303,0.61450726,0.36624536,0.0,782.8938,819.5604,816.7399,751.8681,888.46155,0.0,0.0,0.00714111328125,0.08526611328125,1.00146484375,2.489776611328125,-8.396453857421875,-0.321502685546875,2920439.560439561,112554578.75457875,52529230.76923077,100.15825,1.0,2.0,1.0,1.0,2.0,45.0,,0 days 00:00:00.001000
2023-11-16 11:26:59.864,1.2880565,0.93689436,0.43339983,0.0,0.9332792,0.7631749,0.45331395,0.0,1.0066987,0.5507151,0.55127597,0.0,1.3570634,0.8023955,0.60829407,0.0,1.1234303,0.61450726,0.36624536,0.0,785.7143,814.7253,802.23444,733.3333,731.7216,0.0,0.0,0.02294921875,0.0906982421875,0.99981689453125,2.370147705078125,-10.280609130859377,-0.58319091796875,2929304.0293040294,112539267.3992674,52557435.897435896,98.978615,1.0,2.0,1.0,1.0,2.0,45.0,,0 days 00:00:00.027000
2023-11-16 11:26:59.865,1.2880565,0.93689436,0.43339983,0.0,0.9332792,0.7631749,0.45331395,0.0,1.0066987,0.5507151,0.55127597,0.0,1.3570634,0.8023955,0.60829407,0.0,1.1234303,0.61450726,0.36624536,0.0,783.2967,803.8461,807.8755,745.42126,707.1429,0.0,0.0,0.02294921875,0.0906982421875,0.99981689453125,2.370147705078125,-10.280609130859377,-0.58319091796875,2929304.0293040294,112539267.3992674,52557435.897435896,98.978615,1.0,2.0,1.0,1.0,2.0,45.0,,0 days 00:00:00.001000
2023-11-16 11:26:59.865,1.2880565,0.93689436,0.43339983,0.0,0.9332792,0.7631749,0.45331395,0.0,1.0066987,0.5507151,0.55127597,0.0,1.3570634,0.8023955,0.60829407,0.0,1.1234303,0.61450726,0.36624536,0.0,744.61536,813.91943,818.7546,716.0073,700.293,0.0,0.0,0.02294921875,0.0906982421875,0.99981689453125,2.370147705078125,-10.280609130859377,-0.58319091796875,2929304.0293040294,112539267.3992674,52557435.897435896,98.978615,1.0,2.0,1.0,1.0,2.0,45.0,,0 days 00:00:00
2023-11-16 11:26:59.865,1.2880565,0.93689436,0.43339983,0.0,0.9332792,0.7631749,0.45331395,0.0,1.0066987,0.5507151,0.55127597,0.0,1.3570634,0.8023955,0.60829407,0.0,1.1234303,0.61450726,0.36624536,0.0,680.14655,807.0696,817.5458,696.6667,724.0659,0.0,0.0,0.02294921875,0.0906982421875,0.99981689453125,2.370147705078125,-10.280609130859377,-0.58319091796875,2929304.0293040294,112539267.3992674,52557435.897435896,98.978615,1.0,2.0,1.0,1.0,2.0,45.0,,0 days 00:00:00
2023-11-16 11:26:59.866,1.2880565,0.93689436,0.43339983,0.0,0.9332792,0.7631749,0.45331395,0.0,1.0066987,0.5507151,0.55127597,0.0,1.3570634,0.8023955,0.60829407,0.0,1.1234303,0.61450726,0.36624536,0.0,687.3993,802.6374,824.7985,689.41394,691.02563,0.0,0.0,0.02294921875,0.0906982421875,0.99981689453125,2.370147705078125,-10.280609130859377,-0.58319091796875,2929304.0293040294,112539267.3992674,52557435.897435896,98.978615,1.0,2.0,1.0,1.0,2.0,45.0,,0 days 00:00:00.001000
2023-11-16 11:26:59.866,1.2880565,0.93689436,0.43339983,0.0,0.9332792,0.7631749,0.45331395,0.0,1.0066987,0.5507151,0.55127597,0.0,1.3570634,0.8023955,0.60829407,0.0,1.1234303,0.61450726,0.36624536,0.0,718.4249,816.7399,832.0513,700.696,786.52014,0.0,0.0,0.02294921875,0.0906982421875,0.99981689453125,2.370147705078125,-10.280609130859377,-0.58319091796875,2929304.0293040294,112539267.3992674,52557435.897435896,98.978615,1.0,2.0,1.0,1.0,2.0,45.0,,0 days 00:00:00
2023-11-16 11:26:59.866,1.2880565,0.93689436,0.43339983,0.0,0.9332792,0.7631749,0.45331395,0.0,1.0066987,0.5507151,0.55127597,0.0,1.3570634,0.8023955,0.60829407,0.0,1.1234303,0.61450726,0.36624536,0.0,679.7436,819.15753,834.0659,672.8938,886.4469,0.0,0.0,0.02294921875,0.0906982421875,0.99981689453125,2.370147705078125,-10.280609130859377,-0.58319091796875,2929304.0293040294,112539267.3992674,52557435.897435896,98.978615,1.0,2.0,1.0,1.0,2.0,45.0,,0 days 00:00:00
2023-11-16 11:26:59.867,1.2880565,0.93689436,0.43339983,0.0,0.9332792,0.7631749,0.45331395,0.0,1.0066987,0.5507151,0.55127597,0.0,1.3570634,0.8023955,0.60829407,0.0,1.1234303,0.61450726,0.36624536,0.0,641.06226,815.12823,831.6484,617.6923,716.0073,0.0,0.0,0.02294921875,0.0906982421875,0.99981689453125,2.370147705078125,-10.280609130859377,-0.58319091796875,2929304.0293040294,112539267.3992674,52557435.897435896,98.978615,1.0,2.0,1.0,1.0,2.0,45.0,,0 days 00:00:00.001000
2023-11-16 11:26:59.867,1.2880565,0.93689436,0.43339983,0.0,0.9332792,0.7631749,0.45331395,0.0,1.0066987,0.5507151,0.55127597,0.0,1.3570634,0.8023955,0.60829407,0.0,1.1234303,0.61450726,0.36624536,0.0,657.1795,812.71063,840.5128,624.94507,562.0879,0.0,0.0,0.02294921875,0.0906982421875,0.99981689453125,2.370147705078125,-10.280609130859377,-0.58319091796875,2929304.0293040294,112539267.3992674,52557435.897435896,98.978615,1.0,2.0,1.0,1.0,2.0,45.0,,0 days 00:00:00
2023-11-16 11:26:59.867,1.2880565,0.93689436,0.43339983,0.0,0.9332792,0.7631749,0.45331395,0.0,1.0066987,0.5507151,0.55127597,0.0,1.3570634,0.8023955,0.60829407,0.0,1.1234303,0.61450726,0.36624536,0.0,643.8828,806.26373,853.4066,630.18317,742.6007,0.0,0.0,0.02294921875,0.0906982421875,0.99981689453125,2.370147705078125,-10.280609130859377,-0.58319091796875,2929304.0293040294,112539267.3992674,52557435.897435896,98.978615,1.0,2.0,1.0,1.0,2.0,45.0,,0 days 00:00:00
2023-11-16 11:26:59.868,1.2880565,0.93689436,0.43339983,0.0,0.9332792,0.7631749,0.45331395,0.0,1.0066987,0.5507151,0.55127597,0.0,1.3570634,0.8023955,0.60829407,0.0,1.1234303,0.61450726,0.36624536,0.0,642.27106,804.65204,842.52747,618.0952,869.92676,0.0,0.0,0.02294921875,0.0906982421875,0.99981689453125,2.370147705078125,-10.280609130859377,-0.58319091796875,2929304.0293040294,112539267.3992674,52557435.897435896,98.978615,1.0,2.0,1.0,1.0,2.0,45.0,,0 days 00:00:00.001000
2023-11-16 11:26:59.868,1.2880565,0.93689436,0.43339983,0.0,0.9332792,0.7631749,0.45331395,0.0,1.0066987,0.5507151,0.55127597,0.0,1.3570634,0.8023955,0.60829407,0.0,1.1234303,0.61450726,0.36624536,0.0,638.6447,802.23444,836.08057,581.8315,679.7436,0.0,0.0,0.02294921875,0.0906982421875,0.99981689453125,2.370147705078125,-10.280609130859377,-0.58319091796875,2929304.0293040294,112539267.3992674,52557435.897435896,98.978615,1.0,2.0,1.0,1.0,2.0,45.0,,0 days 00:00:00
2023-11-16 11:26:59.932,1.2880565,0.93689436,0.43339983,0.0,0.9332792,0.7631749,0.45331395,0.0,1.0066987,0.5507151,0.55127597,0.0,1.3570634,0.8023955,0.60829407,0.0,1.1234303,0.61450726,0.36624536,0.0,617.6923,799.41394,856.2271,562.0879,635.0183,0.0,0.0,0.01373291015625,0.08099365234375,1.0054931640625,1.71966552734375,-7.9254150390625,-1.45050048828125,2929304.0293040294,112539267.3992674,52557435.897435896,98.978615,1.0,2.0,1.0,1.0,2.0,45.0,,0 days 00:00:00.064000
2023-11-16 11:26:59.933,1.2880565,0.93689436,0.43339983,0.0,0.9332792,0.7631749,0.45331395,0.0,1.0066987,0.5507151,0.55127597,0.0,1.3570634,0.8023955,0.60829407,0.0,1.1234303,0.61450726,0.36624536,0.0,629.7802,795.78754,863.8828,614.0659,710.3663,0.0,0.0,0.01373291015625,0.08099365234375,1.0054931640625,1.71966552734375,-7.9254150390625,-1.45050048828125,2929304.0293040294,112539267.3992674,52557435.897435896,98.978615,1.0,2.0,1.0,1.0,2.0,45.0,,0 days 00:00:00.001000
2023-11-16 11:26:59.934,1.2880565,0.93689436,0.43339983,0.0,0.9332792,0.7631749,0.45331395,0.0,1.0066987,0.5507151,0.55127597,0.0,1.3570634,0.8023955,0.60829407,0.0,1.1234303,0.61450726,0.36624536,0.0,635.0183,796.99634,870.7326,606.4103,782.0879,0.0,0.0,0.01373291015625,0.08099365234375,1.0054931640625,1.71966552734375,-7.9254150390625,-1.45050048828125,2929304.0293040294,112539267.3992674,52557435.897435896,98.978615,1.0,2.0,1.0,1.0,2.0,45.0,,0 days 00:00:00.001000
2023-11-16 11:26:59.934,1.2880565,0.93689436,0.43339983,0.0,0.9332792,0.7631749,0.45331395,0.0,1.0066987,0.5507151,0.55127597,0.0,1.3570634,0.8023955,0.60829407,0.0,1.1234303,0.61450726,0.36624536,0.0,599.9634,800.2198,877.5824,563.2967,749.0476,0.0,0.0,0.01373291015625,0.08099365234375,1.0054931640625,1.71966552734375,-7.9254150390625,-1.45050048828125,2929304.0293040294,112539267.3992674,52557435.897435896,98.978615,1.0,2.0,1.0,1.0,2.0,45.0,,0 days 00:00:00
2023-11-16 11:26:59.935,1.2880565,0.93689436,0.43339983,0.0,0.9332792,0.7631749,0.45331395,0.0,1.0066987,0.5507151,0.55127597,0.0,1.3570634,0.8023955,0.60829407,0.0,1.1234303,0.61450726,0.36624536,0.0,599.15753,773.6264,868.315,589.89014,724.4689,0.0,0.0,0.01373291015625,0.08099365234375,1.0054931640625,1.71966552734375,-7.9254150390625,-1.45050048828125,2929304.0293040294,112539267.3992674,52557435.897435896,98.978615,1.0,2.0,1.0,1.0,2.0,45.0,,0 days 00:00:00.001000
2023-11-16 11:26:59.935,1.2880565,0.93689436,0.43339983,0.0,0.9332792,0.7631749,0.45331395,0.0,1.0066987,0.5507151,0.55127597,0.0,1.3570634,0.8023955,0.60829407,0.0,1.1234303,0.61450726,0.36624536,0.0,627.76556,760.32965,853.8095,613.663,995.64105,0.0,0.0,0.01373291015625,0.08099365234375,1.0054931640625,1.71966552734375,-7.9254150390625,-1.45050048828125,2929304.0293040294,112539267.3992674,52557435.897435896,98.978615,1.0,2.0,1.0,1.0,2.0,45.0,,0 days 00:00:00
2023-11-16 11:26:59.936,1.2880565,0.93689436,0.43339983,0.0,0.9332792,0.7631749,0.45331395,0.0,1.0066987,0.5507151,0.55127597,0.0,1.3570634,0.8023955,0.60829407,0.0,1.1234303,0.61450726,0.36624536,0.0,639.45056,783.69965,849.7802,642.674,1028.6813,0.0,0.0,0.01373291015625,0.08099365234375,1.0054931640625,1.71966552734375,-7.9254150390625,-1.45050048828125,2929304.0293040294,112539267.3992674,52557435.897435896,98.978615,1.0,2.0,1.0,1.0,2.0,45.0,,0 days 00:00:00.001000
2023-11-16 11:26:59.936,1.2880565,0.93689436,0.39667165,0.0,0.9332792,0.7631749,0.41423973,0.0,1.0066987,0.5507151,0.52770185,0.0,1.3570634,0.8023955,0.60408616,0.0,1.1234303,0.61450726,0.35107055,0.0,641.06226,796.99634,854.21246,651.53845,736.9597,0.0,0.0,0.01373291015625,0.08099365234375,1.0054931640625,1.71966552734375,-7.9254150390625,-1.45050048828125,2929304.0293040294,112539267.3992674,52557435.897435896,98.978615,1.0,2.0,1.0,1.0,2.0,45.0,,0 days 00:00:00
2023-11-16 11:26:59.938,1.2880565,0.93689436,0.39667165,0.0,0.9332792,0.7631749,0.41423973,0.0,1.0066987,0.5507151,0.52770185,0.0,1.3570634,0.8023955,0.60408616,0.0,1.1234303,0.61450726,0.35107055,0.0,649.5238,790.14655,842.9304,642.27106,745.0183,0.0,0.0,0.01373291015625,0.08099365234375,1.0054931640625,1.71966552734375,-7.9254150390625,-1.45050048828125,2929304.0293040294,112539267.3992674,52557435.897435896,98.978615,1.0,2.0,1.0,1.0,2.0,45.0,,0 days 00:00:00.002000
2023-11-16 11:26:59.939,1.2880565,0.93689436,0.39667165,0.0,0.9332792,0.7631749,0.41423973,0.0,1.0066987,0.5507151,0.52770185,0.0,1.3570634,0.8023955,0.60408616,0.0,1.1234303,0.61450726,0.35107055,0.0,691.02563,778.86444,828.8278,645.89746,802.23444,0.0,0.0,0.01373291015625,0.08099365234375,1.0054931640625,1.71966552734375,-7.9254150390625,-1.45050048828125,2929304.0293040294,112539267.3992674,52557435.897435896,98.978615,1.0,2.0,1.0,1.0,2.0,45.0,,0 days 00:00:00.001000
2023-11-16 11:26:59.939,1.2880565,0.93689436,0.39667165,0.0,0.9332792,0.7631749,0.41423973,0.0,1.0066987,0.5507151,0.52770185,0.0,1.3570634,0.8023955,0.60408616,0.0,1.1234303,0.61450726,0.35107055,0.0,714.3956,790.54944,825.6044,648.71796,695.4579,0.0,0.0,0.01373291015625,0.08099365234375,1.0054931640625,1.71966552734375,-7.9254150390625,-1.45050048828125,2929304.0293040294,112539267.3992674,52557435.897435896,98.978615,1.0,2.0,1.0,1.0,2.0,45.0,,0 days 00:00:00
2023-11-16 11:26:59.939,1.2880565,0.93689436,0.39667165,0.0,0.9332792,0.7631749,0.41423973,0.0,1.0066987,0.5507151,0.52770185,0.0,1.3570634,0.8023955,0.60408616,0.0,1.1234303,0.61450726,0.35107055,0.0,676.1172,796.1905,828.022,669.2674,655.16486,0.0,0.0,0.01373291015625,0.08099365234375,1.0054931640625,1.71966552734375,-7.9254150390625,-1.45050048828125,2929304.0293040294,112539267.3992674,52557435.897435896,98.978615,1.0,2.0,1.0,1.0,2.0,45.0,,0 days 00:00:00
2023-11-16 11:26:59.964,1.2880565,0.93689436,0.39667165,0.0,0.9332792,0.7631749,0.41423973,0.0,1.0066987,0.5507151,0.52770185,0.0,1.3570634,0.8023955,0.60408616,0.0,1.1234303,0.61450726,0.35107055,0.0,652.3443,787.326,827.619,702.71063,664.83514,0.0,0.0,0.0252685546875,0.078857421875,1.00262451171875,1.323394775390625,-8.74786376953125,-1.637420654296875,2926080.586080586,112309597.06959708,52504249.08424908,97.68257,1.0,2.0,1.0,1.0,2.0,45.0,,0 days 00:00:00.025000
2023-11-16 11:26:59.965,1.2880565,0.93689436,0.39667165,0.0,0.9332792,0.7631749,0.41423973,0.0,1.0066987,0.5507151,0.52770185,0.0,1.3570634,0.8023955,0.60408616,0.0,1.1234303,0.61450726,0.35107055,0.0,648.71796,780.4762,836.8865,724.4689,753.47986,0.0,0.0,0.0252685546875,0.078857421875,1.00262451171875,1.323394775390625,-8.74786376953125,-1.637420654296875,2926080.586080586,112309597.06959708,52504249.08424908,97.68257,1.0,2.0,1.0,1.0,2.0,45.0,,0 days 00:00:00.001000
2023-11-16 11:26:59.965,1.2880565,0.93689436,0.39667165,0.0,0.9332792,0.7631749,0.41423973,0.0,1.0066987,0.5507151,0.52770185,0.0,1.3570634,0.8023955,0.60408616,0.0,1.1234303,0.61450726,0.35107055,0.0,693.0403,787.326,834.0659,712.381,705.12823,0.0,0.0,0.0252685546875,0.078857421875,1.00262451171875,1.323394775390625,-8.74786376953125,-1.637420654296875,2926080.586080586,112309597.06959708,52504249.08424908,97.68257,1.0,2.0,1.0,1.0,2.0,45.0,,0 days 00:00:00
2023-11-16 11:26:59.966,1.2880565,0.93689436,0.39667165,0.0,0.9332792,0.7631749,0.41423973,0.0,1.0066987,0.5507151,0.52770185,0.0,1.3570634,0.8023955,0.60408616,0.0,1.1234303,0.61450726,0.35107055,0.0,733.73627,795.38464,815.9341,712.381,660.40295,0.0,0.0,0.0252685546875,0.078857421875,1.00262451171875,1.323394775390625,-8.74786376953125,-1.637420654296875,2926080.586080586,112309597.06959708,52504249.08424908,97.68257,1.0,2.0,1.0,1.0,2.0,45.0,,0 days 00:00:00.001000
2023-11-16 11:26:59.966,1.2880565,0.93689436,0.39667165,0.0,0.9332792,0.7631749,0.41423973,0.0,1.0066987,0.5507151,0.52770185,0.0,1.3570634,0.8023955,0.60408616,0.0,1.1234303,0.61450726,0.35107055,0.0,726.4835,790.14655,803.8461,724.0659,800.6227,0.0,0.0,0.0252685546875,0.078857421875,1.00262451171875,1.323394775390625,-8.74786376953125,-1.637420654296875,2926080.586080586,112309597.06959708,52504249.08424908,97.68257,1.0,2.0,1.0,1.0,2.0,45.0,,0 days 00:00:00
2023-11-16 11:26:59.966,1.2880565,0.93689436,0.39667165,0.0,0.9332792,0.7631749,0.41423973,0.0,1.0066987,0.5507151,0.52770185,0.0,1.3570634,0.8023955,0.60408616,0.0,1.1234303,0.61450726,0.35107055,0.0,740.18317,790.14655,807.8755,744.61536,894.90845,0.0,0.0,0.0252685546875,0.078857421875,1.00262451171875,1.323394775390625,-8.74786376953125,-1.637420654296875,2926080.586080586,112309597.06959708,52504249.08424908,97.68257,1.0,2.0,1.0,1.0,2.0,45.0,,0 days 00:00:00
2023-11-16 11:26:59.967,1.2880565,0.93689436,0.39667165,0.0,0.9332792,0.7631749,0.41423973,0.0,1.0066987,0.5507151,0.52770185,0.0,1.3570634,0.8023955,0.60408616,0.0,1.1234303,0.61450726,0.35107055,0.0,751.06226,788.1319,812.3077,754.68866,755.4945,0.0,0.0,0.0252685546875,0.078857421875,1.00262451171875,1.323394775390625,-8.74786376953125,-1.637420654296875,2926080.586080586,112309597.06959708,52504249.08424908,97.68257,1.0,2.0,1.0,1.0,2.0,45.0,,0 days 00:00:00.001000
2023-11-16 11:26:59.967,1.2880565,0.93689436,0.39667165,0.0,0.9332792,0.7631749,0.41423973,0.0,1.0066987,0.5507151,0.52770185,0.0,1.3570634,0.8023955,0.60408616,0.0,1.1234303,0.61450726,0.35107055,0.0,772.4176,790.14655,809.4872,755.4945,672.0879,0.0,0.0,0.0252685546875,0.078857421875,1.00262451171875,1.323394775390625,-8.74786376953125,-1.637420654296875,2926080.586080586,112309597.06959708,52504249.08424908,97.68257,1.0,2.0,1.0,1.0,2.0,45.0,,0 days 00:00:00
2023-11-16 11:26:59.967,1.2880565,0.93689436,0.39667165,0.0,0.9332792,0.7631749,0.41423973,0.0,1.0066987,0.5507151,0.52770185,0.0,1.3570634,0.8023955,0.60408616,0.0,1.1234303,0.61450726,0.35107055,0.0,770.0,789.34064,810.696,762.74725,827.619,0.0,0.0,0.0252685546875,0.078857421875,1.00262451171875,1.323394775390625,-8.74786376953125,-1.637420654296875,2926080.586080586,112309597.06959708,52504249.08424908,97.68257,1.0,2.0,1.0,1.0,2.0,45.0,,0 days 00:00:00
2023-11-16 11:26:59.968,1.2880565,0.93689436,0.39667165,0.0,0.9332792,0.7631749,0.41423973,0.0,1.0066987,0.5507151,0.52770185,0.0,1.3570634,0.8023955,0.60408616,0.0,1.1234303,0.61450726,0.35107055,0.0,735.7509,782.0879,809.0842,736.9597,921.0989,0.0,0.0,0.0252685546875,0.078857421875,1.00262451171875,1.323394775390625,-8.74786376953125,-1.637420654296875,2926080.586080586,112309597.06959708,52504249.08424908,97.68257,1.0,2.0,1.0,1.0,2.0,45.0,,0 days 00:00:00.001000
2023-11-16 11:26:59.968,1.2880565,0.93689436,0.39667165,0.0,0.9332792,0.7631749,0.41423973,0.0,1.0066987,0.5507151,0.52770185,0.0,1.3570634,0.8023955,0.60408616,0.0,1.1234303,0.61450726,0.35107055,0.0,751.8681,788.1319,806.6667,737.3626,716.4103,0.0,0.0,0.0252685546875,0.078857421875,1.00262451171875,1.323394775390625,-8.74786376953125,-1.637420654296875,2926080.586080586,112309597.06959708,52504249.08424908,97.68257,1.0,2.0,1.0,1.0,2.0,45.0,,0 days 00:00:00
2023-11-16 11:26:59.968,1.2880565,0.93689436,0.39667165,0.0,0.9332792,0.7631749,0.41423973,0.0,1.0066987,0.5507151,0.52770185,0.0,1.3570634,0.8023955,0.60408616,0.0,1.1234303,0.61450726,0.35107055,0.0,785.31134,792.5641,798.60803,753.47986,638.24176,0.0,0.0,0.0252685546875,0.078857421875,1.00262451171875,1.323394775390625,-8.74786376953125,-1.637420654296875,2926080.586080586,112309597.06959708,52504249.08424908,97.68257,1.0,2.0,1.0,1.0,2.0,45.0,,0 days 00:00:00
2023-11-16 11:26:59.998,1.2880565,0.93689436,0.39667165,0.0,0.9332792,0.7631749,0.41423973,0.0,1.0066987,0.5507151,0.52770185,0.0,1.3570634,0.8023955,0.60408616,0.0,1.1234303,0.61450726,0.35107055,0.0,773.6264,792.5641,785.31134,759.5238,680.54944,0.0,0.0,0.0252685546875,0.078857421875,1.00262451171875,1.323394775390625,-8.74786376953125,-1.637420654296875,2926080.586080586,112309597.06959708,52504249.08424908,97.68257,1.0,2.0,1.0,1.0,2.0,45.0,,0 days 00:00:00.030000
2023-11-16 11:26:59.999,1.2880565,0.93689436,0.39667165,0.0,0.9332792,0.7631749,0.41423973,0.0,1.0066987,0.5507151,0.52770185,0.0,1.3570634,0.8023955,0.60408616,0.0,1.1234303,0.61450726,0.35107055,0.0,766.3736,800.2198,796.5934,755.09155,697.47253,0.0,0.0,0.0252685546875,0.078857421875,1.00262451171875,1.323394775390625,-8.74786376953125,-1.637420654296875,2926080.586080586,112309597.06959708,52504249.08424908,97.68257,1.0,2.0,1.0,1.0,2.0,45.0,,0 days 00:00:00.001000
2023-11-16 11:27:00.000,1.2880565,0.93689436,0.39667165,0.0,0.9332792,0.7631749,0.41423973,0.0,1.0066987,0.5507151,0.52770185,0.0,1.3570634,0.8023955,0.60408616,0.0,1.1234303,0.61450726,0.35107055,0.0,772.01465,800.2198,805.4579,748.24176,735.7509,0.0,0.0,0.0252685546875,0.078857421875,1.00262451171875,1.323394775390625,-8.74786376953125,-1.637420654296875,2926080.586080586,112309597.06959708,52504249.08424908,97.68257,1.0,2.0,1.0,1.0,2.0,45.0,,0 days 00:00:00.001000
2023-11-16 11:27:00.000,1.2880565,0.93689436,0.39667165,0.0,0.9332792,0.7631749,0.41423973,0.0,1.0066987,0.5507151,0.52770185,0.0,1.3570634,0.8023955,0.60408616,0.0,1.1234303,0.61450726,0.35107055,0.0,778.46155,794.17584,794.17584,745.42126,765.56775,0.0,0.0,0.0252685546875,0.078857421875,1.00262451171875,1.323394775390625,-8.74786376953125,-1.637420654296875,2926080.586080586,112309597.06959708,52504249.08424908,97.68257,1.0,2.0,1.0,1.0,2.0,45.0,,0 days 00:00:00
2023-11-16 11:27:00.001,1.2880565,0.93689436,0.39667165,0.0,0.9332792,0.7631749,0.41423973,0.0,1.0066987,0.5507151,0.52770185,0.0,1.3570634,0.8023955,0.60408616,0.0,1.1234303,0.61450726,0.35107055,0.0,778.46155,786.9231,799.011,763.1502,894.90845,0.0,0.0,0.0252685546875,0.078857421875,1.00262451171875,1.323394775390625,-8.74786376953125,-1.637420654296875,2926080.586080586,112309597.06959708,52504249.08424908,97.68257,1.0,2.0,1.0,1.0,2.0,45.0,,0 days 00:00:00.001000
2023-11-16 11:27:00.001,1.2880565,0.93689436,0.39667165,0.0,0.9332792,0.7631749,0.41423973,0.0,1.0066987,0.5507151,0.52770185,0.0,1.3570634,0.8023955,0.60408616,0.0,1.1234303,0.61450726,0.35107055,0.0,760.7326,784.5055,809.0842,751.06226,851.79486,0.0,0.0,0.0252685546875,0.078857421875,1.00262451171875,1.323394775390625,-8.74786376953125,-1.637420654296875,2926080.586080586,112309597.06959708,52504249.08424908,97.68257,1.0,2.0,1.0,1.0,2.0,45.0,,0 days 00:00:00
2023-11-16 11:27:00.002,1.2880565,0.93689436,0.39667165,0.0,0.9332792,0.7631749,0.41423973,0.0,1.0066987,0.5507151,0.52770185,0.0,1.3570634,0.8023955,0.60408616,0.0,1.1234303,0.61450726,0.35107055,0.0,755.09155,777.25275,805.8608,733.73627,676.52014,0.0,0.0,0.0252685546875,0.078857421875,1.00262451171875,1.323394775390625,-8.74786376953125,-1.637420654296875,2926080.586080586,112309597.06959708,52504249.08424908,97.68257,1.0,2.0,1.0,1.0,2.0,45.0,,0 days 00:00:00.001000
2023-11-16 11:27:00.002,1.2880565,0.93689436,0.39667165,0.0,0.9332792,0.7631749,0.41423973,0.0,1.0066987,0.5507151,0.52770185,0.0,1.3570634,0.8023955,0.60408616,0.0,1.1234303,0.61450726,0.35107055,0.0,751.4652,784.5055,798.20514,765.16486,676.1172,0.0,0.0,0.0252685546875,0.078857421875,1.00262451171875,1.323394775390625,-8.74786376953125,-1.637420654296875,2926080.586080586,112309597.06959708,52504249.08424908,97.68257,1.0,2.0,1.0,1.0,2.0,45.0,,0 days 00:00:00
2023-11-16 11:27:00.003,1.2880565,0.93689436,0.39667165,0.0,0.9332792,0.7631749,0.41423973,0.0,1.0066987,0.5507151,0.52770185,0.0,1.3570634,0.8023955,0.60408616,0.0,1.1234303,0.61450726,0.35107055,0.0,761.53845,788.1319,791.75824,764.7619,894.90845,0.0,0.0,0.0252685546875,0.078857421875,1.00262451171875,1.323394775390625,-8.74786376953125,-1.637420654296875,2926080.586080586,112309597.06959708,52504249.08424908,97.68257,1.0,2.0,1.0,1.0,2.0,45.0,,0 days 00:00:00.001000
2023-11-16 11:27:00.003,1.2880565,0.93689436,0.36021453,0.0,0.9332792,0.7631749,0.3974337,0.0,1.0066987,0.5507151,0.5108703,0.0,1.3570634,0.8023955,0.603184,0.0,1.1234303,0.61450726,0.33657348,0.0,750.65936,800.6227,798.60803,747.03296,843.73627,0.0,0.0,0.0252685546875,0.078857421875,1.00262451171875,1.323394775390625,-8.74786376953125,-1.637420654296875,2926080.586080586,112309597.06959708,52504249.08424908,97.68257,1.0,2.0,1.0,1.0,2.0,45.0,,0 days 00:00:00
2023-11-16 11:27:00.005,1.2880565,0.93689436,0.36021453,0.0,0.9332792,0.7631749,0.3974337,0.0,1.0066987,0.5507151,0.5108703,0.0,1.3570634,0.8023955,0.603184,0.0,1.1234303,0.61450726,0.33657348,0.0,748.6447,812.3077,805.05493,739.3773,656.3736,0.0,0.0,0.0252685546875,0.078857421875,1.00262451171875,1.323394775390625,-8.74786376953125,-1.637420654296875,2926080.586080586,112309597.06959708,52504249.08424908,97.68257,1.0,2.0,1.0,1.0,2.0,45.0,,0 days 00:00:00.002000
2023-11-16 11:27:00.005,1.2880565,0.93689436,0.36021453,0.0,0.9332792,0.7631749,0.3974337,0.0,1.0066987,0.5507151,0.5108703,0.0,1.3570634,0.8023955,0.603184,0.0,1.1234303,0.61450726,0.33657348,0.0,793.7729,806.26373,813.1135,772.01465,663.6264,0.0,0.0,0.0252685546875,0.078857421875,1.00262451171875,1.323394775390625,-8.74786376953125,-1.637420654296875,2926080.586080586,112309597.06959708,52504249.08424908,97.68257,1.0,2.0,1.0,1.0,2.0,45.0,,0 days 00:00:00
2023-11-16 11:27:00.059,1.2880565,0.93689436,0.36021453,0.0,0.9332792,0.7631749,0.3974337,0.0,1.0066987,0.5507151,0.5108703,0.0,1.3570634,0.8023955,0.603184,0.0,1.1234303,0.61450726,0.33657348,0.0,800.6227,805.05493,817.9487,812.71063,689.81683,0.0,0.0,0.0374755859375,0.0745849609375,1.0018310546875,2.07855224609375,-7.9254150390625,-1.996307373046875,2927692.3076923075,112215311.35531136,52482490.842490844,96.37242,1.0,2.0,1.0,1.0,2.0,45.0,,0 days 00:00:00.054000
2023-11-16 11:27:00.059,1.2880565,0.93689436,0.36021453,0.0,0.9332792,0.7631749,0.3974337,0.0,1.0066987,0.5507151,0.5108703,0.0,1.3570634,0.8023955,0.603184,0.0,1.1234303,0.61450726,0.33657348,0.0,763.1502,793.36993,807.8755,759.92676,713.9927,0.0,0.0,0.0374755859375,0.0745849609375,1.0018310546875,2.07855224609375,-7.9254150390625,-1.996307373046875,2927692.3076923075,112215311.35531136,52482490.842490844,96.37242,1.0,2.0,1.0,1.0,2.0,45.0,,0 days 00:00:00
2023-11-16 11:27:00.060,1.2880565,0.93689436,0.36021453,0.0,0.9332792,0.7631749,0.3974337,0.0,1.0066987,0.5507151,0.5108703,0.0,1.3570634,0.8023955,0.603184,0.0,1.1234303,0.61450726,0.33657348,0.0,776.8498,794.17584,800.2198,761.9414,687.8022,0.0,0.0,0.0374755859375,0.0745849609375,1.0018310546875,2.07855224609375,-7.9254150390625,-1.996307373046875,2927692.3076923075,112215311.35531136,52482490.842490844,96.37242,1.0,2.0,1.0,1.0,2.0,45.0,,0 days 00:00:00.001000
2023-11-16 11:27:00.060,1.2880565,0.93689436,0.36021453,0.0,0.9332792,0.7631749,0.3974337,0.0,1.0066987,0.5507151,0.5108703,0.0,1.3570634,0.8023955,0.603184,0.0,1.1234303,0.61450726,0.33657348,0.0,805.8608,788.93774,798.60803,799.011,706.7399,0.0,0.0,0.0374755859375,0.0745849609375,1.0018310546875,2.07855224609375,-7.9254150390625,-1.996307373046875,2927692.3076923075,112215311.35531136,52482490.842490844,96.37242,1.0,2.0,1.0,1.0,2.0,45.0,,0 days 00:00:00
2023-11-16 11:27:00.060,1.2880565,0.93689436,0.36021453,0.0,0.9332792,0.7631749,0.3974337,0.0,1.0066987,0.5507151,0.5108703,0.0,1.3570634,0.8023955,0.603184,0.0,1.1234303,0.61450726,0.33657348,0.0,806.26373,777.6557,790.14655,805.4579,753.8828,0.0,0.0,0.0374755859375,0.0745849609375,1.0018310546875,2.07855224609375,-7.9254150390625,-1.996307373046875,2927692.3076923075,112215311.35531136,52482490.842490844,96.37242,1.0,2.0,1.0,1.0,2.0,45.0,,0 days 00:00:00
2023-11-16 11:27:00.060,1.2880565,0.93689436,0.36021453,0.0,0.9332792,0.7631749,0.3974337,0.0,1.0066987,0.5507151,0.5108703,0.0,1.3570634,0.8023955,0.603184,0.0,1.1234303,0.61450726,0.33657348,0.0,786.1172,785.7143,788.5348,836.4835,764.35895,0.0,0.0,0.0374755859375,0.0745849609375,1.0018310546875,2.07855224609375,-7.9254150390625,-1.996307373046875,2927692.3076923075,112215311.35531136,52482490.842490844,96.37242,1.0,2.0,1.0,1.0,2.0,45.0,,0 days 00:00:00
2023-11-16 11:27:00.060,1.2880565,0.93689436,0.36021453,0.0,0.9332792,0.7631749,0.3974337,0.0,1.0066987,0.5507151,0.5108703,0.0,1.3570634,0.8023955,0.603184,0.0,1.1234303,0.61450726,0.33657348,0.0,770.80585,794.57874,784.5055,834.0659,809.0842,0.0,0.0,0.0374755859375,0.0745849609375,1.0018310546875,2.07855224609375,-7.9254150390625,-1.996307373046875,2927692.3076923075,112215311.35531136,52482490.842490844,96.37242,1.0,2.0,1.0,1.0,2.0,45.0,,0 days 00:00:00
2023-11-16 11:27:00.061,1.2880565,0.93689436,0.36021453,0.0,0.9332792,0.7631749,0.3974337,0.0,1.0066987,0.5507151,0.5108703,0.0,1.3570634,0.8023955,0.603184,0.0,1.1234303,0.61450726,0.33657348,0.0,812.3077,796.5934,770.80585,836.4835,873.1502,0.0,0.0,0.0374755859375,0.0745849609375,1.0018310546875,2.07855224609375,-7.9254150390625,-1.996307373046875,2927692.3076923075,112215311.35531136,52482490.842490844,96.37242,1.0,2.0,1.0,1.0,2.0,45.0,,0 days 00:00:00.001000
2023-11-16 11:27:00.061,1.2880565,0.93689436,0.36021453,0.0,0.9332792,0.7631749,0.3974337,0.0,1.0066987,0.5507151,0.5108703,0.0,1.3570634,0.8023955,0.603184,0.0,1.1234303,0.61450726,0.33657348,0.0,836.08057,796.5934,768.7912,854.21246,992.8205,0.0,0.0,0.0374755859375,0.0745849609375,1.0018310546875,2.07855224609375,-7.9254150390625,-1.996307373046875,2927692.3076923075,112215311.35531136,52482490.842490844,96.37242,1.0,2.0,1.0,1.0,2.0,45.0,,0 days 00:00:00
2023-11-16 11:27:00.061,1.2880565,0.93689436,0.36021453,0.0,0.9332792,0.7631749,0.3974337,0.0,1.0066987,0.5507151,0.5108703,0.0,1.3570634,0.8023955,0.603184,0.0,1.1234303,0.61450726,0.33657348,0.0,832.0513,802.23444,773.6264,829.2308,819.9634,0.0,0.0,0.0374755859375,0.0745849609375,1.0018310546875,2.07855224609375,-7.9254150390625,-1.996307373046875,2927692.3076923075,112215311.35531136,52482490.842490844,96.37242,1.0,2.0,1.0,1.0,2.0,45.0,,0 days 00:00:00
2023-11-16 11:27:00.061,1.2880565,0.93689436,0.36021453,0.0,0.9332792,0.7631749,0.3974337,0.0,1.0066987,0.5507151,0.5108703,0.0,1.3570634,0.8023955,0.603184,0.0,1.1234303,0.61450726,0.33657348,0.0,841.31866,784.10254,772.01465,843.73627,699.89014,0.0,0.0,0.0374755859375,0.0745849609375,1.0018310546875,2.07855224609375,-7.9254150390625,-1.996307373046875,2927692.3076923075,112215311.35531136,52482490.842490844,96.37242,1.0,2.0,1.0,1.0,2.0,45.0,,0 days 00:00:00
2023-11-16 11:27:00.061,1.2880565,0.93689436,0.36021453,0.0,0.9332792,0.7631749,0.3974337,0.0,1.0066987,0.5507151,0.5108703,0.0,1.3570634,0.8023955,0.603184,0.0,1.1234303,0.61450726,0.33657348,0.0,851.79486,756.7033,776.04395,877.1795,792.5641,0.0,0.0,0.0374755859375,0.0745849609375,1.0018310546875,2.07855224609375,-7.9254150390625,-1.996307373046875,2927692.3076923075,112215311.35531136,52482490.842490844,96.37242,1.0,2.0,1.0,1.0,2.0,45.0,,0 days 00:00:00
2023-11-16 11:27:00.093,1.2880565,0.93689436,0.36021453,0.0,0.9332792,0.7631749,0.3974337,0.0,1.0066987,0.5507151,0.5108703,0.0,1.3570634,0.8023955,0.603184,0.0,1.1234303,0.61450726,0.33657348,0.0,875.9707,775.2381,778.46155,869.12085,758.315,0.0,0.0,0.04315185546875,0.07611083984375,1.01434326171875,2.28790283203125,-5.809478759765625,-2.026214599609375,2927692.3076923075,112215311.35531136,52482490.842490844,96.37242,1.0,2.0,1.0,1.0,2.0,45.0,,0 days 00:00:00.032000
2023-11-16 11:27:00.094,1.2880565,0.93689436,0.36021453,0.0,0.9332792,0.7631749,0.3974337,0.0,1.0066987,0.5507151,0.5108703,0.0,1.3570634,0.8023955,0.603184,0.0,1.1234303,0.61450726,0.33657348,0.0,896.1172,820.7692,774.0293,856.2271,686.99634,0.0,0.0,0.04315185546875,0.07611083984375,1.01434326171875,2.28790283203125,-5.809478759765625,-2.026214599609375,2927692.3076923075,112215311.35531136,52482490.842490844,96.37242,1.0,2.0,1.0,1.0,2.0,45.0,,0 days 00:00:00.001000
2023-11-16 11:27:00.094,1.2880565,0.93689436,0.36021453,0.0,0.9332792,0.7631749,0.3974337,0.0,1.0066987,0.5507151,0.5108703,0.0,1.3570634,0.8023955,0.603184,0.0,1.1234303,0.61450726,0.33657348,0.0,859.85345,799.011,769.19415,864.2857,724.0659,0.0,0.0,0.04315185546875,0.07611083984375,1.01434326171875,2.28790283203125,-5.809478759765625,-2.026214599609375,2927692.3076923075,112215311.35531136,52482490.842490844,96.37242,1.0,2.0,1.0,1.0,2.0,45.0,,0 days 00:00:00
2023-11-16 11:27:00.095,1.2880565,0.93689436,0.36021453,0.0,0.9332792,0.7631749,0.3974337,0.0,1.0066987,0.5507151,0.5108703,0.0,1.3570634,0.8023955,0.603184,0.0,1.1234303,0.61450726,0.33657348,0.0,844.5421,788.93774,763.95605,863.47986,801.4286,0.0,0.0,0.04315185546875,0.07611083984375,1.01434326171875,2.28790283203125,-5.809478759765625,-2.026214599609375,2927692.3076923075,112215311.35531136,52482490.842490844,96.37242,1.0,2.0,1.0,1.0,2.0,45.0,,0 days 00:00:00.001000
2023-11-16 11:27:00.095,1.2880565,0.93689436,0.36021453,0.0,0.9332792,0.7631749,0.3974337,0.0,1.0066987,0.5507151,0.5108703,0.0,1.3570634,0.8023955,0.603184,0.0,1.1234303,0.61450726,0.33657348,0.0,860.2564,815.12823,770.40295,850.58606,767.5824,0.0,0.0,0.04315185546875,0.07611083984375,1.01434326171875,2.28790283203125,-5.809478759765625,-2.026214599609375,2927692.3076923075,112215311.35531136,52482490.842490844,96.37242,1.0,2.0,1.0,1.0,2.0,45.0,,0 days 00:00:00
2023-11-16 11:27:00.095,1.2880565,0.93689436,0.36021453,0.0,0.9332792,0.7631749,0.3974337,0.0,1.0066987,0.5507151,0.5108703,0.0,1.3570634,0.8023955,0.603184,0.0,1.1234303,0.61450726,0.33657348,0.0,858.6447,816.337,774.0293,848.97437,684.9817,0.0,0.0,0.04315185546875,0.07611083984375,1.01434326171875,2.28790283203125,-5.809478759765625,-2.026214599609375,2927692.3076923075,112215311.35531136,52482490.842490844,96.37242,1.0,2.0,1.0,1.0,2.0,45.0,,0 days 00:00:00
2023-11-16 11:27:00.096,1.2880565,0.93689436,0.36021453,0.0,0.9332792,0.7631749,0.3974337,0.0,1.0066987,0.5507151,0.5108703,0.0,1.3570634,0.8023955,0.603184,0.0,1.1234303,0.61450726,0.33657348,0.0,842.1245,816.337,759.5238,848.97437,692.23444,0.0,0.0,0.04315185546875,0.07611083984375,1.01434326171875,2.28790283203125,-5.809478759765625,-2.026214599609375,2927692.3076923075,112215311.35531136,52482490.842490844,96.37242,1.0,2.0,1.0,1.0,2.0,45.0,,0 days 00:00:00.001000
2023-11-16 11:27:00.096,1.2880565,0.93689436,0.36021453,0.0,0.9332792,0.7631749,0.3974337,0.0,1.0066987,0.5507151,0.5108703,0.0,1.3570634,0.8023955,0.603184,0.0,1.1234303,0.61450726,0.33657348,0.0,849.7802,808.2784,748.24176,880.0,863.8828,0.0,0.0,0.04315185546875,0.07611083984375,1.01434326171875,2.28790283203125,-5.809478759765625,-2.026214599609375,2927692.3076923075,112215311.35531136,52482490.842490844,96.37242,1.0,2.0,1.0,1.0,2.0,45.0,,0 days 00:00:00
2023-11-16 11:27:00.097,1.2880565,0.93689436,0.36021453,0.0,0.9332792,0.7631749,0.3974337,0.0,1.0066987,0.5507151,0.5108703,0.0,1.3570634,0.8023955,0.603184,0.0,1.1234303,0.61450726,0.33657348,0.0,880.40295,805.05493,765.56775,870.32965,806.26373,0.0,0.0,0.04315185546875,0.07611083984375,1.01434326171875,2.28790283203125,-5.809478759765625,-2.026214599609375,2927692.3076923075,112215311.35531136,52482490.842490844,96.37242,1.0,2.0,1.0,1.0,2.0,45.0,,0 days 00:00:00.001000
2023-11-16 11:27:00.097,1.2880565,0.93689436,0.36021453,0.0,0.9332792,0.7631749,0.3974337,0.0,1.0066987,0.5507151,0.5108703,0.0,1.3570634,0.8023955,0.603184,0.0,1.1234303,0.61450726,0.33657348,0.0,880.0,818.7546,774.0293,861.8681,758.315,0.0,0.0,0.04315185546875,0.07611083984375,1.01434326171875,2.28790283203125,-5.809478759765625,-2.026214599609375,2927692.3076923075,112215311.35531136,52482490.842490844,96.37242,1.0,2.0,1.0,1.0,2.0,45.0,,0 days 00:00:00
2023-11-16 11:27:00.097,1.2880565,0.93689436,0.36021453,0.0,0.9332792,0.7631749,0.3974337,0.0,1.0066987,0.5507151,0.5108703,0.0,1.3570634,0.8023955,0.603184,0.0,1.1234303,0.61450726,0.33657348,0.0,862.674,821.1722,772.01465,880.80585,817.1429,0.0,0.0,0.04315185546875,0.07611083984375,1.01434326171875,2.28790283203125,-5.809478759765625,-2.026214599609375,2927692.3076923075,112215311.35531136,52482490.842490844,96.37242,1.0,2.0,1.0,1.0,2.0,45.0,,0 days 00:00:00
2023-11-16 11:27:00.099,1.2880565,0.93689436,0.36021453,0.0,0.9332792,0.7631749,0.3974337,0.0,1.0066987,0.5507151,0.5108703,0.0,1.3570634,0.8023955,0.603184,0.0,1.1234303,0.61450726,0.33657348,0.0,862.674,821.1722,772.01465,880.80585,817.1429,0.0,0.0,0.04315185546875,0.07611083984375,1.01434326171875,2.28790283203125,-5.809478759765625,-2.026214599609375,2927692.3076923075,112215311.35531136,52482490.842490844,96.37242,1.0,2.0,1.0,1.0,2.0,45.0,/muse/elements/blink,0 days 00:00:00.002000
2023-11-16 11:27:00.098,1.2880565,0.93689436,0.3269801,0.0,0.9332792,0.7631749,0.39607447,0.0,1.0066987,0.5507151,0.5015545,0.0,1.3570634,0.8023955,0.60592854,0.0,1.1234303,0.61450726,0.32486233,0.0,863.8828,817.9487,776.04395,861.8681,818.3516,0.0,0.0,0.04315185546875,0.07611083984375,1.01434326171875,2.28790283203125,-5.809478759765625,-2.026214599609375,2927692.3076923075,112215311.35531136,52482490.842490844,96.37242,1.0,2.0,1.0,1.0,2.0,45.0,/muse/elements/blink,-1 days +23:59:59.999000
2023-11-16 11:27:00.159,1.2880565,0.93689436,0.3269801,0.0,0.9332792,0.7631749,0.39607447,0.0,1.0066987,0.5507151,0.5015545,0.0,1.3570634,0.8023955,0.60592854,0.0,1.1234303,0.61450726,0.32486233,0.0,875.9707,812.71063,777.6557,854.61536,759.5238,0.0,0.0,0.0384521484375,0.0794677734375,1.00958251953125,2.6318359375,-3.8580322265625,-1.457977294921875,2931721.6117216116,112125054.94505496,52451062.27106227,95.138916,1.0,2.0,1.0,1.0,2.0,45.0,/muse/elements/blink,0 days 00:00:00.061000
2023-11-16 11:27:00.160,1.2880565,0.93689436,0.3269801,0.0,0.9332792,0.7631749,0.39607447,0.0,1.0066987,0.5507151,0.5015545,0.0,1.3570634,0.8023955,0.60592854,0.0,1.1234303,0.61450726,0.32486233,0.0,876.3736,801.02563,782.49084,847.76556,659.19415,0.0,0.0,0.0384521484375,0.0794677734375,1.00958251953125,2.6318359375,-3.8580322265625,-1.457977294921875,2931721.6117216116,112125054.94505496,52451062.27106227,95.138916,1.0,2.0,1.0,1.0,2.0,45.0,/muse/elements/blink,0 days 00:00:00.001000
2023-11-16 11:27:00.160,1.2880565,0.93689436,0.3269801,0.0,0.9332792,0.7631749,0.39607447,0.0,1.0066987,0.5507151,0.5015545,0.0,1.3570634,0.8023955,0.60592854,0.0,1.1234303,0.61450726,0.32486233,0.0,876.77655,807.0696,780.4762,842.9304,688.60803,0.0,0.0,0.0384521484375,0.0794677734375,1.00958251953125,2.6318359375,-3.8580322265625,-1.457977294921875,2931721.6117216116,112125054.94505496,52451062.27106227,95.138916,1.0,2.0,1.0,1.0,2.0,45.0,/muse/elements/blink,0 days 00:00:00
2023-11-16 11:27:00.161,1.2880565,0.93689436,0.3269801,0.0,0.9332792,0.7631749,0.39607447,0.0,1.0066987,0.5507151,0.5015545,0.0,1.3570634,0.8023955,0.60592854,0.0,1.1234303,0.61450726,0.32486233,0.0,866.7033,811.0989,771.6117,859.45056,743.00366,0.0,0.0,0.0384521484375,0.0794677734375,1.00958251953125,2.6318359375,-3.8580322265625,-1.457977294921875,2931721.6117216116,112125054.94505496,52451062.27106227,95.138916,1.0,2.0,1.0,1.0,2.0,45.0,/muse/elements/blink,0 days 00:00:00.001000
2023-11-16 11:27:00.161,1.2880565,0.93689436,0.3269801,0.0,0.9332792,0.7631749,0.39607447,0.0,1.0066987,0.5507151,0.5015545,0.0,1.3570634,0.8023955,0.60592854,0.0,1.1234303,0.61450726,0.32486233,0.0,859.45056,805.05493,771.6117,870.32965,747.4359,0.0,0.0,0.0384521484375,0.0794677734375,1.00958251953125,2.6318359375,-3.8580322265625,-1.457977294921875,2931721.6117216116,112125054.94505496,52451062.27106227,95.138916,1.0,2.0,1.0,1.0,2.0,45.0,/muse/elements/blink,0 days 00:00:00
2023-11-16 11:27:00.161,1.2880565,0.93689436,0.3269801,0.0,0.9332792,0.7631749,0.39607447,0.0,1.0066987,0.5507151,0.5015545,0.0,1.3570634,0.8023955,0.60592854,0.0,1.1234303,0.61450726,0.32486233,0.0,890.87915,782.0879,773.22345,873.5531,713.5897,0.0,0.0,0.0384521484375,0.0794677734375,1.00958251953125,2.6318359375,-3.8580322265625,-1.457977294921875,2931721.6117216116,112125054.94505496,52451062.27106227,95.138916,1.0,2.0,1.0,1.0,2.0,45.0,/muse/elements/blink,0 days 00:00:00
2023-11-16 11:27:00.162,1.2880565,0.93689436,0.3269801,0.0,0.9332792,0.7631749,0.39607447,0.0,1.0066987,0.5507151,0.5015545,0.0,1.3570634,0.8023955,0.60592854,0.0,1.1234303,0.61450726,0.32486233,0.0,918.68134,782.8938,777.25275,902.96704,840.5128,0.0,0.0,0.0384521484375,0.0794677734375,1.00958251953125,2.6318359375,-3.8580322265625,-1.457977294921875,2931721.6117216116,112125054.94505496,52451062.27106227,95.138916,1.0,2.0,1.0,1.0,2.0,45.0,/muse/elements/blink,0 days 00:00:00.001000
2023-11-16 11:27:00.162,1.2880565,0.93689436,0.3269801,0.0,0.9332792,0.7631749,0.39607447,0.0,1.0066987,0.5507151,0.5015545,0.0,1.3570634,0.8023955,0.60592854,0.0,1.1234303,0.61450726,0.32486233,0.0,903.7729,808.2784,772.01465,894.10254,1005.31134,0.0,0.0,0.0384521484375,0.0794677734375,1.00958251953125,2.6318359375,-3.8580322265625,-1.457977294921875,2931721.6117216116,112125054.94505496,52451062.27106227,95.138916,1.0,2.0,1.0,1.0,2.0,45.0,/muse/elements/blink,0 days 00:00:00
2023-11-16 11:27:00.162,1.2880565,0.93689436,0.3269801,0.0,0.9332792,0.7631749,0.39607447,0.0,1.0066987,0.5507151,0.5015545,0.0,1.3570634,0.8023955,0.60592854,0.0,1.1234303,0.61450726,0.32486233,0.0,888.46155,819.15753,757.9121,852.6007,767.5824,0.0,0.0,0.0384521484375,0.0794677734375,1.00958251953125,2.6318359375,-3.8580322265625,-1.457977294921875,2931721.6117216116,112125054.94505496,52451062.27106227,95.138916,1.0,2.0,1.0,1.0,2.0,45.0,/muse/elements/blink,0 days 00:00:00
2023-11-16 11:27:00.163,1.2880565,0.93689436,0.3269801,0.0,0.9332792,0.7631749,0.39607447,0.0,1.0066987,0.5507151,0.5015545,0.0,1.3570634,0.8023955,0.60592854,0.0,1.1234303,0.61450726,0.32486233,0.0,872.3443,818.7546,774.0293,852.1978,637.4359,0.0,0.0,0.0384521484375,0.0794677734375,1.00958251953125,2.6318359375,-3.8580322265625,-1.457977294921875,2931721.6117216116,112125054.94505496,52451062.27106227,95.138916,1.0,2.0,1.0,1.0,2.0,45.0,/muse/elements/blink,0 days 00:00:00.001000
2023-11-16 11:27:00.163,1.2880565,0.93689436,0.3269801,0.0,0.9332792,0.7631749,0.39607447,0.0,1.0066987,0.5507151,0.5015545,0.0,1.3570634,0.8023955,0.60592854,0.0,1.1234303,0.61450726,0.32486233,0.0,846.55676,817.5458,790.9524,845.7509,713.5897,0.0,0.0,0.0384521484375,0.0794677734375,1.00958251953125,2.6318359375,-3.8580322265625,-1.457977294921875,2931721.6117216116,112125054.94505496,52451062.27106227,95.138916,1.0,2.0,1.0,1.0,2.0,45.0,/muse/elements/blink,0 days 00:00:00
2023-11-16 11:27:00.163,1.2880565,0.93689436,0.3269801,0.0,0.9332792,0.7631749,0.39607447,0.0,1.0066987,0.5507151,0.5015545,0.0,1.3570634,0.8023955,0.60592854,0.0,1.1234303,0.61450726,0.32486233,0.0,832.0513,822.7839,794.9817,837.6923,682.5641,0.0,0.0,0.0384521484375,0.0794677734375,1.00958251953125,2.6318359375,-3.8580322265625,-1.457977294921875,2931721.6117216116,112125054.94505496,52451062.27106227,95.138916,1.0,2.0,1.0,1.0,2.0,45.0,/muse/elements/blink,0 days 00:00:00
2023-11-16 11:27:00.193,1.2880565,0.93689436,0.3269801,0.0,0.9332792,0.7631749,0.39607447,0.0,1.0066987,0.5507151,0.5015545,0.0,1.3570634,0.8023955,0.60592854,0.0,1.1234303,0.61450726,0.32486233,0.0,850.18317,817.5458,794.9817,863.0769,633.00366,0.0,0.0,0.02935791015625,0.07952880859375,1.00262451171875,1.6748046875,-6.32537841796875,-1.039276123046875,2931721.6117216116,112125054.94505496,52451062.27106227,95.138916,1.0,2.0,1.0,1.0,2.0,45.0,/muse/elements/blink,0 days 00:00:00.030000
2023-11-16 11:27:00.194,1.2880565,0.93689436,0.3269801,0.0,0.9332792,0.7631749,0.39607447,0.0,1.0066987,0.5507151,0.5015545,0.0,1.3570634,0.8023955,0.60592854,0.0,1.1234303,0.61450726,0.32486233,0.0,869.12085,817.1429,793.36993,860.2564,728.49817,0.0,0.0,0.02935791015625,0.07952880859375,1.00262451171875,1.6748046875,-6.32537841796875,-1.039276123046875,2931721.6117216116,112125054.94505496,52451062.27106227,95.138916,1.0,2.0,1.0,1.0,2.0,45.0,/muse/elements/blink,0 days 00:00:00.001000
2023-11-16 11:27:00.194,1.2880565,0.93689436,0.3269801,0.0,0.9332792,0.7631749,0.39607447,0.0,1.0066987,0.5507151,0.5015545,0.0,1.3570634,0.8023955,0.60592854,0.0,1.1234303,0.61450726,0.32486233,0.0,880.80585,815.5311,793.36993,840.9158,987.98535,0.0,0.0,0.02935791015625,0.07952880859375,1.00262451171875,1.6748046875,-6.32537841796875,-1.039276123046875,2931721.6117216116,112125054.94505496,52451062.27106227,95.138916,1.0,2.0,1.0,1.0,2.0,45.0,/muse/elements/blink,0 days 00:00:00
2023-11-16 11:27:00.194,1.2880565,0.93689436,0.3269801,0.0,0.9332792,0.7631749,0.39607447,0.0,1.0066987,0.5507151,0.5015545,0.0,1.3570634,0.8023955,0.60592854,0.0,1.1234303,0.61450726,0.32486233,0.0,860.65936,809.4872,785.31134,819.9634,967.8388,0.0,0.0,0.02935791015625,0.07952880859375,1.00262451171875,1.6748046875,-6.32537841796875,-1.039276123046875,2931721.6117216116,112125054.94505496,52451062.27106227,95.138916,1.0,2.0,1.0,1.0,2.0,45.0,/muse/elements/blink,0 days 00:00:00
2023-11-16 11:27:00.195,1.2880565,0.93689436,0.3269801,0.0,0.9332792,0.7631749,0.39607447,0.0,1.0066987,0.5507151,0.5015545,0.0,1.3570634,0.8023955,0.60592854,0.0,1.1234303,0.61450726,0.32486233,0.0,832.8571,814.7253,779.67035,813.91943,759.12085,0.0,0.0,0.02935791015625,0.07952880859375,1.00262451171875,1.6748046875,-6.32537841796875,-1.039276123046875,2931721.6117216116,112125054.94505496,52451062.27106227,95.138916,1.0,2.0,1.0,1.0,2.0,45.0,/muse/elements/blink,0 days 00:00:00.001000
2023-11-16 11:27:00.195,1.2880565,0.93689436,0.3269801,0.0,0.9332792,0.7631749,0.39607447,0.0,1.0066987,0.5507151,0.5015545,0.0,1.3570634,0.8023955,0.60592854,0.0,1.1234303,0.61450726,0.32486233,0.0,844.1392,812.3077,792.96704,838.0952,818.7546,0.0,0.0,0.02935791015625,0.07952880859375,1.00262451171875,1.6748046875,-6.32537841796875,-1.039276123046875,2931721.6117216116,112125054.94505496,52451062.27106227,95.138916,1.0,2.0,1.0,1.0,2.0,45.0,/muse/elements/blink,0 days 00:00:00
2023-11-16 11:27:00.195,1.2880565,0.93689436,0.3269801,0.0,0.9332792,0.7631749,0.39607447,0.0,1.0066987,0.5507151,0.5015545,0.0,1.3570634,0.8023955,0.60592854,0.0,1.1234303,0.61450726,0.32486233,0.0,864.68866,804.65204,794.57874,823.5897,993.22345,0.0,0.0,0.02935791015625,0.07952880859375,1.00262451171875,1.6748046875,-6.32537841796875,-1.039276123046875,2931721.6117216116,112125054.94505496,52451062.27106227,95.138916,1.0,2.0,1.0,1.0,2.0,45.0,/muse/elements/blink,0 days 00:00:00
2023-11-16 11:27:00.196,1.2880565,0.93689436,0.3269801,0.0,0.9332792,0.7631749,0.39607447,0.0,1.0066987,0.5507151,0.5015545,0.0,1.3570634,0.8023955,0.60592854,0.0,1.1234303,0.61450726,0.32486233,0.0,832.8571,809.89014,794.57874,819.15753,866.30035,0.0,0.0,0.02935791015625,0.07952880859375,1.00262451171875,1.6748046875,-6.32537841796875,-1.039276123046875,2931721.6117216116,112125054.94505496,52451062.27106227,95.138916,1.0,2.0,1.0,1.0,2.0,45.0,/muse/elements/blink,0 days 00:00:00.001000
2023-11-16 11:27:00.196,1.2880565,0.93689436,0.3269801,0.0,0.9332792,0.7631749,0.39607447,0.0,1.0066987,0.5507151,0.5015545,0.0,1.3570634,0.8023955,0.60592854,0.0,1.1234303,0.61450726,0.32486233,0.0,785.31134,805.05493,793.7729,796.99634,676.1172,0.0,0.0,0.02935791015625,0.07952880859375,1.00262451171875,1.6748046875,-6.32537841796875,-1.039276123046875,2931721.6117216116,112125054.94505496,52451062.27106227,95.138916,1.0,2.0,1.0,1.0,2.0,45.0,/muse/elements/blink,0 days 00:00:00
2023-11-16 11:27:00.196,1.2880565,0.93689436,0.3269801,0.0,0.9332792,0.7631749,0.39607447,0.0,1.0066987,0.5507151,0.5015545,0.0,1.3570634,0.8023955,0.60592854,0.0,1.1234303,0.61450726,0.32486233,0.0,814.7253,802.6374,801.8315,782.49084,702.3077,0.0,0.0,0.02935791015625,0.07952880859375,1.00262451171875,1.6748046875,-6.32537841796875,-1.039276123046875,2931721.6117216116,112125054.94505496,52451062.27106227,95.138916,1.0,2.0,1.0,1.0,2.0,45.0,/muse/elements/blink,0 days 00:00:00
2023-11-16 11:27:00.197,1.2880565,0.93689436,0.3269801,0.0,0.9332792,0.7631749,0.39607447,0.0,1.0066987,0.5507151,0.5015545,0.0,1.3570634,0.8023955,0.60592854,0.0,1.1234303,0.61450726,0.32486233,0.0,830.0366,816.7399,811.0989,761.53845,740.989,0.0,0.0,0.02935791015625,0.07952880859375,1.00262451171875,1.6748046875,-6.32537841796875,-1.039276123046875,2931721.6117216116,112125054.94505496,52451062.27106227,95.138916,1.0,2.0,1.0,1.0,2.0,45.0,/muse/elements/blink,0 days 00:00:00.001000
2023-11-16 11:27:00.197,1.2880565,0.93689436,0.3269801,0.0,0.9332792,0.7631749,0.39607447,0.0,1.0066987,0.5507151,0.5015545,0.0,1.3570634,0.8023955,0.60592854,0.0,1.1234303,0.61450726,0.32486233,0.0,777.25275,816.337,805.8608,738.5714,736.55676,0.0,0.0,0.02935791015625,0.07952880859375,1.00262451171875,1.6748046875,-6.32537841796875,-1.039276123046875,2931721.6117216116,112125054.94505496,52451062.27106227,95.138916,1.0,2.0,1.0,1.0,2.0,45.0,/muse/elements/blink,0 days 00:00:00
2023-11-16 11:27:00.260,1.2880565,0.93689436,0.3269801,0.0,0.9332792,0.7631749,0.39607447,0.0,1.0066987,0.5507151,0.5015545,0.0,1.3570634,0.8023955,0.60592854,0.0,1.1234303,0.61450726,0.32486233,0.0,768.7912,818.3516,813.91943,753.47986,727.6923,0.0,0.0,0.02935791015625,0.07952880859375,1.00262451171875,1.6748046875,-6.32537841796875,-1.039276123046875,2932527.4725274723,112063809.52380952,52481684.98168498,93.977615,1.0,2.0,1.0,1.0,2.0,45.0,/muse/elements/blink,0 days 00:00:00.063000
2023-11-16 11:27:00.261,1.2880565,0.93689436,0.30301166,0.0,0.9332792,0.7631749,0.40373668,0.0,1.0066987,0.5507151,0.48730808,0.0,1.3570634,0.8023955,0.6052038,0.0,1.1234303,0.61450726,0.31893793,0.0,757.50916,807.47253,815.12823,729.707,776.4469,0.0,0.0,0.02935791015625,0.07952880859375,1.00262451171875,1.6748046875,-6.32537841796875,-1.039276123046875,2932527.4725274723,112063809.52380952,52481684.98168498,93.977615,1.0,2.0,1.0,1.0,2.0,45.0,/muse/elements/blink,0 days 00:00:00.001000
2023-11-16 11:27:00.263,1.2880565,0.93689436,0.30301166,0.0,0.9332792,0.7631749,0.40373668,0.0,1.0066987,0.5507151,0.48730808,0.0,1.3570634,0.8023955,0.6052038,0.0,1.1234303,0.61450726,0.31893793,0.0,743.00366,798.20514,825.2015,680.14655,801.02563,0.0,0.0,0.02935791015625,0.07952880859375,1.00262451171875,1.6748046875,-6.32537841796875,-1.039276123046875,2932527.4725274723,112063809.52380952,52481684.98168498,93.977615,1.0,2.0,1.0,1.0,2.0,45.0,/muse/elements/blink,0 days 00:00:00.002000
2023-11-16 11:27:00.263,1.2880565,0.93689436,0.30301166,0.0,0.9332792,0.7631749,0.40373668,0.0,1.0066987,0.5507151,0.48730808,0.0,1.3570634,0.8023955,0.6052038,0.0,1.1234303,0.61450726,0.31893793,0.0,736.55676,801.02563,835.6777,657.98535,740.58606,0.0,0.0,0.02935791015625,0.07952880859375,1.00262451171875,1.6748046875,-6.32537841796875,-1.039276123046875,2932527.4725274723,112063809.52380952,52481684.98168498,93.977615,1.0,2.0,1.0,1.0,2.0,45.0,/muse/elements/blink,0 days 00:00:00
2023-11-16 11:27:00.264,1.2880565,0.93689436,0.30301166,0.0,0.9332792,0.7631749,0.40373668,0.0,1.0066987,0.5507151,0.48730808,0.0,1.3570634,0.8023955,0.6052038,0.0,1.1234303,0.61450726,0.31893793,0.0,672.49084,796.1905,828.4249,649.5238,713.1868,0.0,0.0,0.02935791015625,0.07952880859375,1.00262451171875,1.6748046875,-6.32537841796875,-1.039276123046875,2932527.4725274723,112063809.52380952,52481684.98168498,93.977615,1.0,2.0,1.0,1.0,2.0,45.0,/muse/elements/blink,0 days 00:00:00.001000
2023-11-16 11:27:00.264,1.2880565,0.93689436,0.30301166,0.0,0.9332792,0.7631749,0.40373668,0.0,1.0066987,0.5507151,0.48730808,0.0,1.3570634,0.8023955,0.6052038,0.0,1.1234303,0.61450726,0.31893793,0.0,682.1612,790.54944,832.4542,662.01465,843.3333,0.0,0.0,0.02935791015625,0.07952880859375,1.00262451171875,1.6748046875,-6.32537841796875,-1.039276123046875,2932527.4725274723,112063809.52380952,52481684.98168498,93.977615,1.0,2.0,1.0,1.0,2.0,45.0,/muse/elements/blink,0 days 00:00:00
2023-11-16 11:27:00.265,1.2880565,0.93689436,0.30301166,0.0,0.9332792,0.7631749,0.40373668,0.0,1.0066987,0.5507151,0.48730808,0.0,1.3570634,0.8023955,0.6052038,0.0,1.1234303,0.61450726,0.31893793,0.0,691.02563,792.1612,840.5128,681.75824,1077.4359,0.0,0.0,0.02935791015625,0.07952880859375,1.00262451171875,1.6748046875,-6.32537841796875,-1.039276123046875,2932527.4725274723,112063809.52380952,52481684.98168498,93.977615,1.0,2.0,1.0,1.0,2.0,45.0,/muse/elements/blink,0 days 00:00:00.001000
2023-11-16 11:27:00.265,1.2880565,0.93689436,0.30301166,0.0,0.9332792,0.7631749,0.40373668,0.0,1.0066987,0.5507151,0.48730808,0.0,1.3570634,0.8023955,0.6052038,0.0,1.1234303,0.61450726,0.31893793,0.0,653.1502,816.7399,846.55676,630.989,867.9121,0.0,0.0,0.02935791015625,0.07952880859375,1.00262451171875,1.6748046875,-6.32537841796875,-1.039276123046875,2932527.4725274723,112063809.52380952,52481684.98168498,93.977615,1.0,2.0,1.0,1.0,2.0,45.0,/muse/elements/blink,0 days 00:00:00
2023-11-16 11:27:00.266,1.2880565,0.93689436,0.30301166,0.0,0.9332792,0.7631749,0.40373668,0.0,1.0066987,0.5507151,0.48730808,0.0,1.3570634,0.8023955,0.6052038,0.0,1.1234303,0.61450726,0.31893793,0.0,669.67035,811.9048,844.94507,604.3956,694.2491,0.0,0.0,0.02935791015625,0.07952880859375,1.00262451171875,1.6748046875,-6.32537841796875,-1.039276123046875,2932527.4725274723,112063809.52380952,52481684.98168498,93.977615,1.0,2.0,1.0,1.0,2.0,45.0,/muse/elements/blink,0 days 00:00:00.001000
2023-11-16 11:27:00.266,1.2880565,0.93689436,0.30301166,0.0,0.9332792,0.7631749,0.40373668,0.0,1.0066987,0.5507151,0.48730808,0.0,1.3570634,0.8023955,0.6052038,0.0,1.1234303,0.61450726,0.31893793,0.0,680.54944,797.8022,839.304,617.28937,812.71063,0.0,0.0,0.02935791015625,0.07952880859375,1.00262451171875,1.6748046875,-6.32537841796875,-1.039276123046875,2932527.4725274723,112063809.52380952,52481684.98168498,93.977615,1.0,2.0,1.0,1.0,2.0,45.0,/muse/elements/blink,0 days 00:00:00
2023-11-16 11:27:00.267,1.2880565,0.93689436,0.30301166,0.0,0.9332792,0.7631749,0.40373668,0.0,1.0066987,0.5507151,0.48730808,0.0,1.3570634,0.8023955,0.6052038,0.0,1.1234303,0.61450726,0.31893793,0.0,662.01465,814.3223,834.87177,624.1392,817.5458,0.0,0.0,0.02935791015625,0.07952880859375,1.00262451171875,1.6748046875,-6.32537841796875,-1.039276123046875,2932527.4725274723,112063809.52380952,52481684.98168498,93.977615,1.0,2.0,1.0,1.0,2.0,45.0,/muse/elements/blink,0 days 00:00:00.001000
2023-11-16 11:27:00.267,1.2880565,0.93689436,0.30301166,0.0,0.9332792,0.7631749,0.40373668,0.0,1.0066987,0.5507151,0.48730808,0.0,1.3570634,0.8023955,0.6052038,0.0,1.1234303,0.61450726,0.31893793,0.0,679.7436,820.7692,832.0513,641.06226,709.15753,0.0,0.0,0.02935791015625,0.07952880859375,1.00262451171875,1.6748046875,-6.32537841796875,-1.039276123046875,2932527.4725274723,112063809.52380952,52481684.98168498,93.977615,1.0,2.0,1.0,1.0,2.0,45.0,/muse/elements/blink,0 days 00:00:00
2023-11-16 11:27:00.292,1.2880565,0.93689436,0.30301166,0.0,0.9332792,0.7631749,0.40373668,0.0,1.0066987,0.5507151,0.48730808,0.0,1.3570634,0.8023955,0.6052038,0.0,1.1234303,0.61450726,0.31893793,0.0,684.57874,801.4286,817.1429,637.8388,686.5934,0.0,0.0,0.04388427734375,0.07159423828125,1.0084228515625,0.904693603515625,-6.258087158203125,-1.27105712890625,2932527.4725274723,112063809.52380952,52481684.98168498,93.977615,1.0,2.0,1.0,1.0,2.0,45.0,/muse/elements/blink,0 days 00:00:00.025000
2023-11-16 11:27:00.293,1.2880565,0.93689436,0.30301166,0.0,0.9332792,0.7631749,0.40373668,0.0,1.0066987,0.5507151,0.48730808,0.0,1.3570634,0.8023955,0.6052038,0.0,1.1234303,0.61450726,0.31893793,0.0,674.90845,798.60803,815.5311,628.5714,762.3443,0.0,0.0,0.04388427734375,0.07159423828125,1.0084228515625,0.904693603515625,-6.258087158203125,-1.27105712890625,2932527.4725274723,112063809.52380952,52481684.98168498,93.977615,1.0,2.0,1.0,1.0,2.0,45.0,/muse/elements/blink,0 days 00:00:00.001000
2023-11-16 11:27:00.293,1.2880565,0.93689436,0.30301166,0.0,0.9332792,0.7631749,0.40373668,0.0,1.0066987,0.5507151,0.48730808,0.0,1.3570634,0.8023955,0.6052038,0.0,1.1234303,0.61450726,0.31893793,0.0,697.47253,813.1135,838.9011,635.0183,823.1868,0.0,0.0,0.04388427734375,0.07159423828125,1.0084228515625,0.904693603515625,-6.258087158203125,-1.27105712890625,2932527.4725274723,112063809.52380952,52481684.98168498,93.977615,1.0,2.0,1.0,1.0,2.0,45.0,/muse/elements/blink,0 days 00:00:00
2023-11-16 11:27:00.293,1.2880565,0.93689436,0.30301166,0.0,0.9332792,0.7631749,0.40373668,0.0,1.0066987,0.5507151,0.48730808,0.0,1.3570634,0.8023955,0.6052038,0.0,1.1234303,0.61450726,0.31893793,0.0,737.3626,821.978,841.7216,664.43225,814.3223,0.0,0.0,0.04388427734375,0.07159423828125,1.0084228515625,0.904693603515625,-6.258087158203125,-1.27105712890625,2932527.4725274723,112063809.52380952,52481684.98168498,93.977615,1.0,2.0,1.0,1.0,2.0,45.0,/muse/elements/blink,0 days 00:00:00
2023-11-16 11:27:00.294,1.2880565,0.93689436,0.30301166,0.0,0.9332792,0.7631749,0.40373668,0.0,1.0066987,0.5507151,0.48730808,0.0,1.3570634,0.8023955,0.6052038,0.0,1.1234303,0.61450726,0.31893793,0.0,730.10986,817.9487,833.2601,672.49084,780.4762,0.0,0.0,0.04388427734375,0.07159423828125,1.0084228515625,0.904693603515625,-6.258087158203125,-1.27105712890625,2932527.4725274723,112063809.52380952,52481684.98168498,93.977615,1.0,2.0,1.0,1.0,2.0,45.0,/muse/elements/blink,0 days 00:00:00.001000
2023-11-16 11:27:00.294,1.2880565,0.93689436,0.30301166,0.0,0.9332792,0.7631749,0.40373668,0.0,1.0066987,0.5507151,0.48730808,0.0,1.3570634,0.8023955,0.6052038,0.0,1.1234303,0.61450726,0.31893793,0.0,713.9927,798.20514,822.7839,715.2015,1054.4689,0.0,0.0,0.04388427734375,0.07159423828125,1.0084228515625,0.904693603515625,-6.258087158203125,-1.27105712890625,2932527.4725274723,112063809.52380952,52481684.98168498,93.977615,1.0,2.0,1.0,1.0,2.0,45.0,/muse/elements/blink,0 days 00:00:00
2023-11-16 11:27:00.294,1.2880565,0.93689436,0.30301166,0.0,0.9332792,0.7631749,0.40373668,0.0,1.0066987,0.5507151,0.48730808,0.0,1.3570634,0.8023955,0.6052038,0.0,1.1234303,0.61450726,0.31893793,0.0,697.47253,785.31134,819.5604,740.18317,1073.8096,0.0,0.0,0.04388427734375,0.07159423828125,1.0084228515625,0.904693603515625,-6.258087158203125,-1.27105712890625,2932527.4725274723,112063809.52380952,52481684.98168498,93.977615,1.0,2.0,1.0,1.0,2.0,45.0,/muse/elements/blink,0 days 00:00:00
2023-11-16 11:27:00.295,1.2880565,0.93689436,0.30301166,0.0,0.9332792,0.7631749,0.40373668,0.0,1.0066987,0.5507151,0.48730808,0.0,1.3570634,0.8023955,0.6052038,0.0,1.1234303,0.61450726,0.31893793,0.0,709.5604,793.36993,821.978,674.10254,788.93774,0.0,0.0,0.04388427734375,0.07159423828125,1.0084228515625,0.904693603515625,-6.258087158203125,-1.27105712890625,2932527.4725274723,112063809.52380952,52481684.98168498,93.977615,1.0,2.0,1.0,1.0,2.0,45.0,/muse/elements/blink,0 days 00:00:00.001000
2023-11-16 11:27:00.295,1.2880565,0.93689436,0.30301166,0.0,0.9332792,0.7631749,0.40373668,0.0,1.0066987,0.5507151,0.48730808,0.0,1.3570634,0.8023955,0.6052038,0.0,1.1234303,0.61450726,0.31893793,0.0,751.4652,797.3993,823.5897,712.7839,768.3883,0.0,0.0,0.04388427734375,0.07159423828125,1.0084228515625,0.904693603515625,-6.258087158203125,-1.27105712890625,2932527.4725274723,112063809.52380952,52481684.98168498,93.977615,1.0,2.0,1.0,1.0,2.0,45.0,/muse/elements/blink,0 days 00:00:00
2023-11-16 11:27:00.295,1.2880565,0.93689436,0.30301166,0.0,0.9332792,0.7631749,0.40373668,0.0,1.0066987,0.5507151,0.48730808,0.0,1.3570634,0.8023955,0.6052038,0.0,1.1234303,0.61450726,0.31893793,0.0,761.13556,783.69965,833.663,783.2967,973.0769,0.0,0.0,0.04388427734375,0.07159423828125,1.0084228515625,0.904693603515625,-6.258087158203125,-1.27105712890625,2932527.4725274723,112063809.52380952,52481684.98168498,93.977615,1.0,2.0,1.0,1.0,2.0,45.0,/muse/elements/blink,0 days 00:00:00
2023-11-16 11:27:00.296,1.2880565,0.93689436,0.30301166,0.0,0.9332792,0.7631749,0.40373668,0.0,1.0066987,0.5507151,0.48730808,0.0,1.3570634,0.8023955,0.6052038,0.0,1.1234303,0.61450726,0.31893793,0.0,743.4066,786.52014,834.87177,779.67035,902.96704,0.0,0.0,0.04388427734375,0.07159423828125,1.0084228515625,0.904693603515625,-6.258087158203125,-1.27105712890625,2932527.4725274723,112063809.52380952,52481684.98168498,93.977615,1.0,2.0,1.0,1.0,2.0,45.0,/muse/elements/blink,0 days 00:00:00.001000
2023-11-16 11:27:00.296,1.2880565,0.93689436,0.30301166,0.0,0.9332792,0.7631749,0.40373668,0.0,1.0066987,0.5507151,0.48730808,0.0,1.3570634,0.8023955,0.6052038,0.0,1.1234303,0.61450726,0.31893793,0.0,773.22345,799.011,816.337,779.2674,701.50183,0.0,0.0,0.04388427734375,0.07159423828125,1.0084228515625,0.904693603515625,-6.258087158203125,-1.27105712890625,2932527.4725274723,112063809.52380952,52481684.98168498,93.977615,1.0,2.0,1.0,1.0,2.0,45.0,/muse/elements/blink,0 days 00:00:00
2023-11-16 11:27:00.325,1.2880565,0.93689436,0.30301166,0.0,0.9332792,0.7631749,0.40373668,0.0,1.0066987,0.5507151,0.48730808,0.0,1.3570634,0.8023955,0.6052038,0.0,1.1234303,0.61450726,0.31893793,0.0,792.5641,795.38464,807.0696,794.57874,736.55676,0.0,0.0,0.03411865234375,0.0672607421875,1.002197265625,0.261688232421875,-5.555267333984375,-1.5850830078125,2948644.6886446886,112106520.14652014,52504249.08424908,92.88426,1.0,2.0,1.0,1.0,2.0,45.0,/muse/elements/blink,0 days 00:00:00.029000
2023-11-16 11:27:00.326,1.2880565,0.93689436,0.30301166,0.0,0.9332792,0.7631749,0.40373668,0.0,1.0066987,0.5507151,0.48730808,0.0,1.3570634,0.8023955,0.6052038,0.0,1.1234303,0.61450726,0.31893793,0.0,780.87915,786.1172,813.1135,790.9524,808.2784,0.0,0.0,0.03411865234375,0.0672607421875,1.002197265625,0.261688232421875,-5.555267333984375,-1.5850830078125,2948644.6886446886,112106520.14652014,52504249.08424908,92.88426,1.0,2.0,1.0,1.0,2.0,45.0,/muse/elements/blink,0 days 00:00:00.001000
2023-11-16 11:27:00.326,1.2880565,0.93689436,0.30301166,0.0,0.9332792,0.7631749,0.40373668,0.0,1.0066987,0.5507151,0.48730808,0.0,1.3570634,0.8023955,0.6052038,0.0,1.1234303,0.61450726,0.31893793,0.0,812.3077,790.54944,808.2784,801.8315,820.3663,0.0,0.0,0.03411865234375,0.0672607421875,1.002197265625,0.261688232421875,-5.555267333984375,-1.5850830078125,2948644.6886446886,112106520.14652014,52504249.08424908,92.88426,1.0,2.0,1.0,1.0,2.0,45.0,/muse/elements/blink,0 days 00:00:00
2023-11-16 11:27:00.326,1.2880565,0.93689436,0.30079925,0.0,0.9332792,0.7631749,0.4202887,0.0,1.0066987,0.5507151,0.40719333,0.0,1.3570634,0.8023955,0.59041584,0.0,1.1234303,0.61450726,0.31685814,0.0,863.8828,799.011,794.57874,822.7839,795.38464,0.0,0.0,0.03411865234375,0.0672607421875,1.002197265625,0.261688232421875,-5.555267333984375,-1.5850830078125,2948644.6886446886,112106520.14652014,52504249.08424908,92.88426,1.0,2.0,1.0,1.0,2.0,45.0,/muse/elements/blink,0 days 00:00:00
2023-11-16 11:27:00.328,1.2880565,0.93689436,0.30079925,0.0,0.9332792,0.7631749,0.4202887,0.0,1.0066987,0.5507151,0.40719333,0.0,1.3570634,0.8023955,0.59041584,0.0,1.1234303,0.61450726,0.31685814,0.0,856.63007,788.93774,799.011,842.9304,765.16486,0.0,0.0,0.03411865234375,0.0672607421875,1.002197265625,0.261688232421875,-5.555267333984375,-1.5850830078125,2948644.6886446886,112106520.14652014,52504249.08424908,92.88426,1.0,2.0,1.0,1.0,2.0,45.0,/muse/elements/blink,0 days 00:00:00.002000
2023-11-16 11:27:00.328,1.2880565,0.93689436,0.30079925,0.0,0.9332792,0.7631749,0.4202887,0.0,1.0066987,0.5507151,0.40719333,0.0,1.3570634,0.8023955,0.59041584,0.0,1.1234303,0.61450726,0.31685814,0.0,809.0842,779.67035,798.20514,844.94507,804.2491,0.0,0.0,0.03411865234375,0.0672607421875,1.002197265625,0.261688232421875,-5.555267333984375,-1.5850830078125,2948644.6886446886,112106520.14652014,52504249.08424908,92.88426,1.0,2.0,1.0,1.0,2.0,45.0,/muse/elements/blink,0 days 00:00:00
2023-11-16 11:27:00.329,1.2880565,0.93689436,0.30079925,0.0,0.9332792,0.7631749,0.4202887,0.0,1.0066987,0.5507151,0.40719333,0.0,1.3570634,0.8023955,0.59041584,0.0,1.1234303,0.61450726,0.31685814,0.0,776.04395,777.25275,790.54944,823.5897,852.6007,0.0,0.0,0.03411865234375,0.0672607421875,1.002197265625,0.261688232421875,-5.555267333984375,-1.5850830078125,2948644.6886446886,112106520.14652014,52504249.08424908,92.88426,1.0,2.0,1.0,1.0,2.0,45.0,/muse/elements/blink,0 days 00:00:00.001000
2023-11-16 11:27:00.329,1.2880565,0.93689436,0.30079925,0.0,0.9332792,0.7631749,0.4202887,0.0,1.0066987,0.5507151,0.40719333,0.0,1.3570634,0.8023955,0.59041584,0.0,1.1234303,0.61450726,0.31685814,0.0,837.28937,780.4762,790.14655,837.28937,738.5714,0.0,0.0,0.03411865234375,0.0672607421875,1.002197265625,0.261688232421875,-5.555267333984375,-1.5850830078125,2948644.6886446886,112106520.14652014,52504249.08424908,92.88426,1.0,2.0,1.0,1.0,2.0,45.0,/muse/elements/blink,0 days 00:00:00
2023-11-16 11:27:00.329,1.2880565,0.93689436,0.30079925,0.0,0.9332792,0.7631749,0.4202887,0.0,1.0066987,0.5507151,0.40719333,0.0,1.3570634,0.8023955,0.59041584,0.0,1.1234303,0.61450726,0.31685814,0.0,877.98535,780.87915,789.34064,869.92676,761.13556,0.0,0.0,0.03411865234375,0.0672607421875,1.002197265625,0.261688232421875,-5.555267333984375,-1.5850830078125,2948644.6886446886,112106520.14652014,52504249.08424908,92.88426,1.0,2.0,1.0,1.0,2.0,45.0,/muse/elements/blink,0 days 00:00:00
2023-11-16 11:27:00.330,1.2880565,0.93689436,0.30079925,0.0,0.9332792,0.7631749,0.4202887,0.0,1.0066987,0.5507151,0.40719333,0.0,1.3570634,0.8023955,0.59041584,0.0,1.1234303,0.61450726,0.31685814,0.0,841.7216,785.31134,785.7143,888.0586,949.707,0.0,0.0,0.03411865234375,0.0672607421875,1.002197265625,0.261688232421875,-5.555267333984375,-1.5850830078125,2948644.6886446886,112106520.14652014,52504249.08424908,92.88426,1.0,2.0,1.0,1.0,2.0,45.0,/muse/elements/blink,0 days 00:00:00.001000
2023-11-16 11:27:00.330,1.2880565,0.93689436,0.30079925,0.0,0.9332792,0.7631749,0.4202887,0.0,1.0066987,0.5507151,0.40719333,0.0,1.3570634,0.8023955,0.59041584,0.0,1.1234303,0.61450726,0.31685814,0.0,847.76556,792.96704,778.0586,859.85345,874.7619,0.0,0.0,0.03411865234375,0.0672607421875,1.002197265625,0.261688232421875,-5.555267333984375,-1.5850830078125,2948644.6886446886,112106520.14652014,52504249.08424908,92.88426,1.0,2.0,1.0,1.0,2.0,45.0,/muse/elements/blink,0 days 00:00:00
2023-11-16 11:27:00.331,1.2880565,0.93689436,0.30079925,0.0,0.9332792,0.7631749,0.4202887,0.0,1.0066987,0.5507151,0.40719333,0.0,1.3570634,0.8023955,0.59041584,0.0,1.1234303,0.61450726,0.31685814,0.0,853.4066,786.9231,780.07324,843.73627,759.12085,0.0,0.0,0.03411865234375,0.0672607421875,1.002197265625,0.261688232421875,-5.555267333984375,-1.5850830078125,2948644.6886446886,112106520.14652014,52504249.08424908,92.88426,1.0,2.0,1.0,1.0,2.0,45.0,/muse/elements/blink,0 days 00:00:00.001000
2023-11-16 11:27:00.384,1.2880565,0.93689436,0.30079925,0.0,0.9332792,0.7631749,0.4202887,0.0,1.0066987,0.5507151,0.40719333,0.0,1.3570634,0.8023955,0.59041584,0.0,1.1234303,0.61450726,0.31685814,0.0,867.9121,788.5348,775.64105,873.95605,863.47986,0.0,0.0,0.03289794921875,0.06304931640625,1.00555419921875,1.33087158203125,-5.271148681640625,-1.996307373046875,2948644.6886446886,112106520.14652014,52504249.08424908,92.88426,1.0,2.0,1.0,1.0,2.0,45.0,/muse/elements/blink,0 days 00:00:00.053000
2023-11-16 11:27:00.385,1.2880565,0.93689436,0.30079925,0.0,0.9332792,0.7631749,0.4202887,0.0,1.0066987,0.5507151,0.40719333,0.0,1.3570634,0.8023955,0.59041584,0.0,1.1234303,0.61450726,0.31685814,0.0,876.3736,792.96704,765.56775,868.71796,893.69965,0.0,0.0,0.03289794921875,0.06304931640625,1.00555419921875,1.33087158203125,-5.271148681640625,-1.996307373046875,2948644.6886446886,112106520.14652014,52504249.08424908,92.88426,1.0,2.0,1.0,1.0,2.0,45.0,/muse/elements/blink,0 days 00:00:00.001000
2023-11-16 11:27:00.385,1.2880565,0.93689436,0.30079925,0.0,0.9332792,0.7631749,0.4202887,0.0,1.0066987,0.5507151,0.40719333,0.0,1.3570634,0.8023955,0.59041584,0.0,1.1234303,0.61450726,0.31685814,0.0,882.01465,797.8022,748.6447,843.73627,845.7509,0.0,0.0,0.03289794921875,0.06304931640625,1.00555419921875,1.33087158203125,-5.271148681640625,-1.996307373046875,2948644.6886446886,112106520.14652014,52504249.08424908,92.88426,1.0,2.0,1.0,1.0,2.0,45.0,/muse/elements/blink,0 days 00:00:00
2023-11-16 11:27:00.386,1.2880565,0.93689436,0.30079925,0.0,0.9332792,0.7631749,0.4202887,0.0,1.0066987,0.5507151,0.40719333,0.0,1.3570634,0.8023955,0.59041584,0.0,1.1234303,0.61450726,0.31685814,0.0,895.31134,799.011,749.45056,860.2564,858.6447,0.0,0.0,0.03289794921875,0.06304931640625,1.00555419921875,1.33087158203125,-5.271148681640625,-1.996307373046875,2948644.6886446886,112106520.14652014,52504249.08424908,92.88426,1.0,2.0,1.0,1.0,2.0,45.0,/muse/elements/blink,0 days 00:00:00.001000
2023-11-16 11:27:00.386,1.2880565,0.93689436,0.30079925,0.0,0.9332792,0.7631749,0.4202887,0.0,1.0066987,0.5507151,0.40719333,0.0,1.3570634,0.8023955,0.59041584,0.0,1.1234303,0.61450726,0.31685814,0.0,871.13556,776.8498,782.8938,894.5055,924.7253,0.0,0.0,0.03289794921875,0.06304931640625,1.00555419921875,1.33087158203125,-5.271148681640625,-1.996307373046875,2948644.6886446886,112106520.14652014,52504249.08424908,92.88426,1.0,2.0,1.0,1.0,2.0,45.0,/muse/elements/blink,0 days 00:00:00
2023-11-16 11:27:00.387,1.2880565,0.93689436,0.30079925,0.0,0.9332792,0.7631749,0.4202887,0.0,1.0066987,0.5507151,0.40719333,0.0,1.3570634,0.8023955,0.59041584,0.0,1.1234303,0.61450726,0.31685814,0.0,866.30035,774.43225,793.36993,897.326,835.6777,0.0,0.0,0.03289794921875,0.06304931640625,1.00555419921875,1.33087158203125,-5.271148681640625,-1.996307373046875,2948644.6886446886,112106520.14652014,52504249.08424908,92.88426,1.0,2.0,1.0,1.0,2.0,45.0,/muse/elements/blink,0 days 00:00:00.001000
2023-11-16 11:27:00.387,1.2880565,0.93689436,0.30079925,0.0,0.9332792,0.7631749,0.4202887,0.0,1.0066987,0.5507151,0.40719333,0.0,1.3570634,0.8023955,0.59041584,0.0,1.1234303,0.61450726,0.31685814,0.0,897.72894,790.14655,786.9231,873.1502,725.2747,0.0,0.0,0.03289794921875,0.06304931640625,1.00555419921875,1.33087158203125,-5.271148681640625,-1.996307373046875,2948644.6886446886,112106520.14652014,52504249.08424908,92.88426,1.0,2.0,1.0,1.0,2.0,45.0,/muse/elements/blink,0 days 00:00:00
2023-11-16 11:27:00.388,1.2880565,0.93689436,0.30079925,0.0,0.9332792,0.7631749,0.4202887,0.0,1.0066987,0.5507151,0.40719333,0.0,1.3570634,0.8023955,0.59041584,0.0,1.1234303,0.61450726,0.31685814,0.0,874.7619,793.36993,777.25275,863.47986,761.53845,0.0,0.0,0.03289794921875,0.06304931640625,1.00555419921875,1.33087158203125,-5.271148681640625,-1.996307373046875,2948644.6886446886,112106520.14652014,52504249.08424908,92.88426,1.0,2.0,1.0,1.0,2.0,45.0,/muse/elements/blink,0 days 00:00:00.001000
2023-11-16 11:27:00.388,1.2880565,0.93689436,0.30079925,0.0,0.9332792,0.7631749,0.4202887,0.0,1.0066987,0.5507151,0.40719333,0.0,1.3570634,0.8023955,0.59041584,0.0,1.1234303,0.61450726,0.31685814,0.0,869.5238,784.10254,773.6264,863.47986,909.81683,0.0,0.0,0.03289794921875,0.06304931640625,1.00555419921875,1.33087158203125,-5.271148681640625,-1.996307373046875,2948644.6886446886,112106520.14652014,52504249.08424908,92.88426,1.0,2.0,1.0,1.0,2.0,45.0,/muse/elements/blink,0 days 00:00:00
2023-11-16 11:27:00.389,1.2880565,0.93689436,0.30079925,0.0,0.9332792,0.7631749,0.4202887,0.0,1.0066987,0.5507151,0.40719333,0.0,1.3570634,0.8023955,0.59041584,0.0,1.1234303,0.61450726,0.31685814,0.0,893.69965,790.14655,785.7143,880.0,847.3626,0.0,0.0,0.03289794921875,0.06304931640625,1.00555419921875,1.33087158203125,-5.271148681640625,-1.996307373046875,2948644.6886446886,112106520.14652014,52504249.08424908,92.88426,1.0,2.0,1.0,1.0,2.0,45.0,/muse/elements/blink,0 days 00:00:00.001000
2023-11-16 11:27:00.389,1.2880565,0.93689436,0.30079925,0.0,0.9332792,0.7631749,0.4202887,0.0,1.0066987,0.5507151,0.40719333,0.0,1.3570634,0.8023955,0.59041584,0.0,1.1234303,0.61450726,0.31685814,0.0,882.01465,792.1612,786.52014,887.6557,673.69965,0.0,0.0,0.03289794921875,0.06304931640625,1.00555419921875,1.33087158203125,-5.271148681640625,-1.996307373046875,2948644.6886446886,112106520.14652014,52504249.08424908,92.88426,1.0,2.0,1.0,1.0,2.0,45.0,/muse/elements/blink,0 days 00:00:00
2023-11-16 11:27:00.390,1.2880565,0.93689436,0.30079925,0.0,0.9332792,0.7631749,0.4202887,0.0,1.0066987,0.5507151,0.40719333,0.0,1.3570634,0.8023955,0.59041584,0.0,1.1234303,0.61450726,0.31685814,0.0,868.71796,786.1172,777.25275,885.64105,703.5165,0.0,0.0,0.03289794921875,0.06304931640625,1.00555419921875,1.33087158203125,-5.271148681640625,-1.996307373046875,2948644.6886446886,112106520.14652014,52504249.08424908,92.88426,1.0,2.0,1.0,1.0,2.0,45.0,/muse/elements/blink,0 days 00:00:00.001000
2023-11-16 11:27:00.429,1.2880565,0.93689436,0.30079925,0.0,0.9332792,0.7631749,0.4202887,0.0,1.0066987,0.5507151,0.40719333,0.0,1.3570634,0.8023955,0.59041584,0.0,1.1234303,0.61450726,0.31685814,0.0,872.74725,798.60803,778.86444,904.9817,714.3956,0.0,0.0,0.03985595703125,0.07086181640625,1.0003662109375,2.1533203125,-6.05621337890625,-0.85235595703125,2940586.0805860804,112087985.34798534,52527619.047619045,91.85489,1.0,2.0,1.0,1.0,2.0,45.0,/muse/elements/blink,0 days 00:00:00.039000
2023-11-16 11:27:00.430,1.2880565,0.93689436,0.30079925,0.0,0.9332792,0.7631749,0.4202887,0.0,1.0066987,0.5507151,0.40719333,0.0,1.3570634,0.8023955,0.59041584,0.0,1.1234303,0.61450726,0.31685814,0.0,872.74725,802.23444,788.1319,898.5348,719.2308,0.0,0.0,0.03985595703125,0.07086181640625,1.0003662109375,2.1533203125,-6.05621337890625,-0.85235595703125,2940586.0805860804,112087985.34798534,52527619.047619045,91.85489,1.0,2.0,1.0,1.0,2.0,45.0,/muse/elements/blink,0 days 00:00:00.001000
2023-11-16 11:27:00.430,1.2880565,0.93689436,0.30079925,0.0,0.9332792,0.7631749,0.4202887,0.0,1.0066987,0.5507151,0.40719333,0.0,1.3570634,0.8023955,0.59041584,0.0,1.1234303,0.61450726,0.31685814,0.0,881.6117,791.3553,789.34064,882.4176,699.89014,0.0,0.0,0.03985595703125,0.07086181640625,1.0003662109375,2.1533203125,-6.05621337890625,-0.85235595703125,2940586.0805860804,112087985.34798534,52527619.047619045,91.85489,1.0,2.0,1.0,1.0,2.0,45.0,/muse/elements/blink,0 days 00:00:00
2023-11-16 11:27:00.431,1.2880565,0.93689436,0.30079925,0.0,0.9332792,0.7631749,0.4202887,0.0,1.0066987,0.5507151,0.40719333,0.0,1.3570634,0.8023955,0.59041584,0.0,1.1234303,0.61450726,0.31685814,0.0,853.8095,786.9231,787.326,875.9707,729.707,0.0,0.0,0.03985595703125,0.07086181640625,1.0003662109375,2.1533203125,-6.05621337890625,-0.85235595703125,2940586.0805860804,112087985.34798534,52527619.047619045,91.85489,1.0,2.0,1.0,1.0,2.0,45.0,/muse/elements/blink,0 days 00:00:00.001000
2023-11-16 11:27:00.431,1.2880565,0.93689436,0.30079925,0.0,0.9332792,0.7631749,0.4202887,0.0,1.0066987,0.5507151,0.40719333,0.0,1.3570634,0.8023955,0.59041584,0.0,1.1234303,0.61450726,0.31685814,0.0,872.74725,794.57874,794.17584,881.6117,796.5934,0.0,0.0,0.03985595703125,0.07086181640625,1.0003662109375,2.1533203125,-6.05621337890625,-0.85235595703125,2940586.0805860804,112087985.34798534,52527619.047619045,91.85489,1.0,2.0,1.0,1.0,2.0,45.0,/muse/elements/blink,0 days 00:00:00
2023-11-16 11:27:00.433,1.2880565,0.93689436,0.30079925,0.0,0.9332792,0.7631749,0.4202887,0.0,1.0066987,0.5507151,0.40719333,0.0,1.3570634,0.8023955,0.59041584,0.0,1.1234303,0.61450726,0.31685814,0.0,872.74725,794.57874,794.17584,881.6117,796.5934,0.0,0.0,0.03985595703125,0.07086181640625,1.0003662109375,2.1533203125,-6.05621337890625,-0.85235595703125,2940586.0805860804,112087985.34798534,52527619.047619045,91.85489,1.0,2.0,1.0,1.0,2.0,45.0,/muse/elements/blink,0 days 00:00:00.002000
2023-11-16 11:27:00.432,1.2880565,0.93689436,0.30652925,0.0,0.9332792,0.7631749,0.44933647,0.0,1.0066987,0.5507151,0.29889414,0.0,1.3570634,0.8023955,0.55633366,0.0,1.1234303,0.61450726,0.31278867,0.0,890.07324,782.49084,784.90845,878.3883,781.685,0.0,0.0,0.03985595703125,0.07086181640625,1.0003662109375,2.1533203125,-6.05621337890625,-0.85235595703125,2940586.0805860804,112087985.34798534,52527619.047619045,91.85489,1.0,2.0,1.0,1.0,2.0,45.0,/muse/elements/blink,-1 days +23:59:59.999000
2023-11-16 11:27:00.434,1.2880565,0.93689436,0.30652925,0.0,0.9332792,0.7631749,0.44933647,0.0,1.0066987,0.5507151,0.29889414,0.0,1.3570634,0.8023955,0.55633366,0.0,1.1234303,0.61450726,0.31278867,0.0,872.3443,750.65936,776.04395,873.1502,741.79486,0.0,0.0,0.03985595703125,0.07086181640625,1.0003662109375,2.1533203125,-6.05621337890625,-0.85235595703125,2940586.0805860804,112087985.34798534,52527619.047619045,91.85489,1.0,2.0,1.0,1.0,2.0,45.0,/muse/elements/blink,0 days 00:00:00.002000
2023-11-16 11:27:00.435,1.2880565,0.93689436,0.30652925,0.0,0.9332792,0.7631749,0.44933647,0.0,1.0066987,0.5507151,0.29889414,0.0,1.3570634,0.8023955,0.55633366,0.0,1.1234303,0.61450726,0.31278867,0.0,861.06226,770.0,776.4469,890.4762,851.79486,0.0,0.0,0.03985595703125,0.07086181640625,1.0003662109375,2.1533203125,-6.05621337890625,-0.85235595703125,2940586.0805860804,112087985.34798534,52527619.047619045,91.85489,1.0,2.0,1.0,1.0,2.0,45.0,/muse/elements/blink,0 days 00:00:00.001000
2023-11-16 11:27:00.435,1.2880565,0.93689436,0.30652925,0.0,0.9332792,0.7631749,0.44933647,0.0,1.0066987,0.5507151,0.29889414,0.0,1.3570634,0.8023955,0.55633366,0.0,1.1234303,0.61450726,0.31278867,0.0,864.68866,823.5897,780.4762,911.4286,999.2674,0.0,0.0,0.03985595703125,0.07086181640625,1.0003662109375,2.1533203125,-6.05621337890625,-0.85235595703125,2940586.0805860804,112087985.34798534,52527619.047619045,91.85489,1.0,2.0,1.0,1.0,2.0,45.0,/muse/elements/blink,0 days 00:00:00
2023-11-16 11:27:00.435,1.2880565,0.93689436,0.30652925,0.0,0.9332792,0.7631749,0.44933647,0.0,1.0066987,0.5507151,0.29889414,0.0,1.3570634,0.8023955,0.55633366,0.0,1.1234303,0.61450726,0.31278867,0.0,880.40295,825.2015,778.46155,875.56775,807.47253,0.0,0.0,0.03985595703125,0.07086181640625,1.0003662109375,2.1533203125,-6.05621337890625,-0.85235595703125,2940586.0805860804,112087985.34798534,52527619.047619045,91.85489,1.0,2.0,1.0,1.0,2.0,45.0,/muse/elements/blink,0 days 00:00:00
2023-11-16 11:27:00.436,1.2880565,0.93689436,0.30652925,0.0,0.9332792,0.7631749,0.44933647,0.0,1.0066987,0.5507151,0.29889414,0.0,1.3570634,0.8023955,0.55633366,0.0,1.1234303,0.61450726,0.31278867,0.0,874.35895,807.47253,769.19415,844.5421,711.1722,0.0,0.0,0.03985595703125,0.07086181640625,1.0003662109375,2.1533203125,-6.05621337890625,-0.85235595703125,2940586.0805860804,112087985.34798534,52527619.047619045,91.85489,1.0,2.0,1.0,1.0,2.0,45.0,/muse/elements/blink,0 days 00:00:00.001000
2023-11-16 11:27:00.436,1.2880565,0.93689436,0.30652925,0.0,0.9332792,0.7631749,0.44933647,0.0,1.0066987,0.5507151,0.29889414,0.0,1.3570634,0.8023955,0.55633366,0.0,1.1234303,0.61450726,0.31278867,0.0,873.5531,814.3223,791.75824,854.21246,797.8022,0.0,0.0,0.03985595703125,0.07086181640625,1.0003662109375,2.1533203125,-6.05621337890625,-0.85235595703125,2940586.0805860804,112087985.34798534,52527619.047619045,91.85489,1.0,2.0,1.0,1.0,2.0,45.0,/muse/elements/blink,0 days 00:00:00
2023-11-16 11:27:00.473,1.2880565,0.93689436,0.30652925,0.0,0.9332792,0.7631749,0.44933647,0.0,1.0066987,0.5507151,0.29889414,0.0,1.3570634,0.8023955,0.55633366,0.0,1.1234303,0.61450726,0.31278867,0.0,895.7143,818.3516,808.68134,862.27106,792.96704,0.0,0.0,0.03985595703125,0.07086181640625,1.0003662109375,2.1533203125,-6.05621337890625,-0.85235595703125,2940586.0805860804,112087985.34798534,52527619.047619045,91.85489,1.0,2.0,1.0,1.0,2.0,45.0,/muse/elements/blink,0 days 00:00:00.037000
2023-11-16 11:27:00.474,1.2880565,0.93689436,0.30652925,0.0,0.9332792,0.7631749,0.44933647,0.0,1.0066987,0.5507151,0.29889414,0.0,1.3570634,0.8023955,0.55633366,0.0,1.1234303,0.61450726,0.31278867,0.0,867.1062,813.91943,801.4286,841.7216,815.12823,0.0,0.0,0.03985595703125,0.07086181640625,1.0003662109375,2.1533203125,-6.05621337890625,-0.85235595703125,2940586.0805860804,112087985.34798534,52527619.047619045,91.85489,1.0,2.0,1.0,1.0,2.0,45.0,/muse/elements/blink,0 days 00:00:00.001000
2023-11-16 11:27:00.475,1.2880565,0.93689436,0.30652925,0.0,0.9332792,0.7631749,0.44933647,0.0,1.0066987,0.5507151,0.29889414,0.0,1.3570634,0.8023955,0.55633366,0.0,1.1234303,0.61450726,0.31278867,0.0,856.2271,810.293,792.96704,841.7216,954.5421,0.0,0.0,0.03985595703125,0.07086181640625,1.0003662109375,2.1533203125,-6.05621337890625,-0.85235595703125,2940586.0805860804,112087985.34798534,52527619.047619045,91.85489,1.0,2.0,1.0,1.0,2.0,45.0,/muse/elements/blink,0 days 00:00:00.001000
2023-11-16 11:27:00.475,1.2880565,0.93689436,0.30652925,0.0,0.9332792,0.7631749,0.44933647,0.0,1.0066987,0.5507151,0.29889414,0.0,1.3570634,0.8023955,0.55633366,0.0,1.1234303,0.61450726,0.31278867,0.0,892.0879,779.2674,780.87915,859.85345,977.9121,0.0,0.0,0.03985595703125,0.07086181640625,1.0003662109375,2.1533203125,-6.05621337890625,-0.85235595703125,2940586.0805860804,112087985.34798534,52527619.047619045,91.85489,1.0,2.0,1.0,1.0,2.0,45.0,/muse/elements/blink,0 days 00:00:00
2023-11-16 11:27:00.475,1.2880565,0.93689436,0.30652925,0.0,0.9332792,0.7631749,0.44933647,0.0,1.0066987,0.5507151,0.29889414,0.0,1.3570634,0.8023955,0.55633366,0.0,1.1234303,0.61450726,0.31278867,0.0,840.9158,764.35895,782.8938,860.2564,817.1429,0.0,0.0,0.03985595703125,0.07086181640625,1.0003662109375,2.1533203125,-6.05621337890625,-0.85235595703125,2940586.0805860804,112087985.34798534,52527619.047619045,91.85489,1.0,2.0,1.0,1.0,2.0,45.0,/muse/elements/blink,0 days 00:00:00
2023-11-16 11:27:00.476,1.2880565,0.93689436,0.30652925,0.0,0.9332792,0.7631749,0.44933647,0.0,1.0066987,0.5507151,0.29889414,0.0,1.3570634,0.8023955,0.55633366,0.0,1.1234303,0.61450726,0.31278867,0.0,819.9634,804.65204,800.6227,870.32965,723.663,0.0,0.0,0.03985595703125,0.07086181640625,1.0003662109375,2.1533203125,-6.05621337890625,-0.85235595703125,2940586.0805860804,112087985.34798534,52527619.047619045,91.85489,1.0,2.0,1.0,1.0,2.0,45.0,/muse/elements/blink,0 days 00:00:00.001000
2023-11-16 11:27:00.476,1.2880565,0.93689436,0.30652925,0.0,0.9332792,0.7631749,0.44933647,0.0,1.0066987,0.5507151,0.29889414,0.0,1.3570634,0.8023955,0.55633366,0.0,1.1234303,0.61450726,0.31278867,0.0,842.9304,813.91943,794.57874,838.9011,766.3736,0.0,0.0,0.03985595703125,0.07086181640625,1.0003662109375,2.1533203125,-6.05621337890625,-0.85235595703125,2940586.0805860804,112087985.34798534,52527619.047619045,91.85489,1.0,2.0,1.0,1.0,2.0,45.0,/muse/elements/blink,0 days 00:00:00
2023-11-16 11:27:00.477,1.2880565,0.93689436,0.30652925,0.0,0.9332792,0.7631749,0.44933647,0.0,1.0066987,0.5507151,0.29889414,0.0,1.3570634,0.8023955,0.55633366,0.0,1.1234303,0.61450726,0.31278867,0.0,861.4652,801.8315,779.2674,855.0183,918.2784,0.0,0.0,0.03985595703125,0.07086181640625,1.0003662109375,2.1533203125,-6.05621337890625,-0.85235595703125,2940586.0805860804,112087985.34798534,52527619.047619045,91.85489,1.0,2.0,1.0,1.0,2.0,45.0,/muse/elements/blink,0 days 00:00:00.001000
2023-11-16 11:27:00.477,1.2880565,0.93689436,0.30652925,0.0,0.9332792,0.7631749,0.44933647,0.0,1.0066987,0.5507151,0.29889414,0.0,1.3570634,0.8023955,0.55633366,0.0,1.1234303,0.61450726,0.31278867,0.0,846.1539,807.8755,780.87915,861.4652,933.1868,0.0,0.0,0.03985595703125,0.07086181640625,1.0003662109375,2.1533203125,-6.05621337890625,-0.85235595703125,2940586.0805860804,112087985.34798534,52527619.047619045,91.85489,1.0,2.0,1.0,1.0,2.0,45.0,/muse/elements/blink,0 days 00:00:00
2023-11-16 11:27:00.478,1.2880565,0.93689436,0.30652925,0.0,0.9332792,0.7631749,0.44933647,0.0,1.0066987,0.5507151,0.29889414,0.0,1.3570634,0.8023955,0.55633366,0.0,1.1234303,0.61450726,0.31278867,0.0,817.1429,782.0879,792.5641,803.0403,698.2784,0.0,0.0,0.03985595703125,0.07086181640625,1.0003662109375,2.1533203125,-6.05621337890625,-0.85235595703125,2940586.0805860804,112087985.34798534,52527619.047619045,91.85489,1.0,2.0,1.0,1.0,2.0,45.0,/muse/elements/blink,0 days 00:00:00.001000
2023-11-16 11:27:00.478,1.2880565,0.93689436,0.30652925,0.0,0.9332792,0.7631749,0.44933647,0.0,1.0066987,0.5507151,0.29889414,0.0,1.3570634,0.8023955,0.55633366,0.0,1.1234303,0.61450726,0.31278867,0.0,835.2747,785.7143,798.60803,832.4542,662.8205,0.0,0.0,0.03985595703125,0.07086181640625,1.0003662109375,2.1533203125,-6.05621337890625,-0.85235595703125,2940586.0805860804,112087985.34798534,52527619.047619045,91.85489,1.0,2.0,1.0,1.0,2.0,45.0,/muse/elements/blink,0 days 00:00:00
2023-11-16 11:27:00.478,1.2880565,0.93689436,0.30652925,0.0,0.9332792,0.7631749,0.44933647,0.0,1.0066987,0.5507151,0.29889414,0.0,1.3570634,0.8023955,0.55633366,0.0,1.1234303,0.61450726,0.31278867,0.0,840.10986,819.15753,795.38464,834.0659,713.5897,0.0,0.0,0.03985595703125,0.07086181640625,1.0003662109375,2.1533203125,-6.05621337890625,-0.85235595703125,2940586.0805860804,112087985.34798534,52527619.047619045,91.85489,1.0,2.0,1.0,1.0,2.0,45.0,/muse/elements/blink,0 days 00:00:00
2023-11-16 11:27:00.509,1.2880565,0.93689436,0.30652925,0.0,0.9332792,0.7631749,0.44933647,0.0,1.0066987,0.5507151,0.29889414,0.0,1.3570634,0.8023955,0.55633366,0.0,1.1234303,0.61450726,0.31278867,0.0,803.0403,813.1135,791.75824,812.71063,690.2198,0.0,0.0,0.0364990234375,0.0714111328125,1.01409912109375,1.936492919921875,-5.794525146484375,-1.114044189453125,2934945.054945055,112191135.53113551,52558241.75824176,90.89321,1.0,2.0,1.0,1.0,2.0,45.0,/muse/elements/blink,0 days 00:00:00.031000
2023-11-16 11:27:00.510,1.2880565,0.93689436,0.30652925,0.0,0.9332792,0.7631749,0.44933647,0.0,1.0066987,0.5507151,0.29889414,0.0,1.3570634,0.8023955,0.55633366,0.0,1.1234303,0.61450726,0.31278867,0.0,839.707,812.3077,798.60803,844.1392,682.1612,0.0,0.0,0.0364990234375,0.0714111328125,1.01409912109375,1.936492919921875,-5.794525146484375,-1.114044189453125,2934945.054945055,112191135.53113551,52558241.75824176,90.89321,1.0,2.0,1.0,1.0,2.0,45.0,/muse/elements/blink,0 days 00:00:00.001000
2023-11-16 11:27:00.511,1.2880565,0.93689436,0.30652925,0.0,0.9332792,0.7631749,0.44933647,0.0,1.0066987,0.5507151,0.29889414,0.0,1.3570634,0.8023955,0.55633366,0.0,1.1234303,0.61450726,0.31278867,0.0,828.8278,813.1135,804.65204,856.2271,685.38464,0.0,0.0,0.0364990234375,0.0714111328125,1.01409912109375,1.936492919921875,-5.794525146484375,-1.114044189453125,2934945.054945055,112191135.53113551,52558241.75824176,90.89321,1.0,2.0,1.0,1.0,2.0,45.0,/muse/elements/blink,0 days 00:00:00.001000
2023-11-16 11:27:00.511,1.2880565,0.93689436,0.30652925,0.0,0.9332792,0.7631749,0.44933647,0.0,1.0066987,0.5507151,0.29889414,0.0,1.3570634,0.8023955,0.55633366,0.0,1.1234303,0.61450726,0.31278867,0.0,810.293,809.0842,805.8608,836.8865,703.5165,0.0,0.0,0.0364990234375,0.0714111328125,1.01409912109375,1.936492919921875,-5.794525146484375,-1.114044189453125,2934945.054945055,112191135.53113551,52558241.75824176,90.89321,1.0,2.0,1.0,1.0,2.0,45.0,/muse/elements/blink,0 days 00:00:00
2023-11-16 11:27:00.511,1.2880565,0.93689436,0.30652925,0.0,0.9332792,0.7631749,0.44933647,0.0,1.0066987,0.5507151,0.29889414,0.0,1.3570634,0.8023955,0.55633366,0.0,1.1234303,0.61450726,0.31278867,0.0,841.31866,792.96704,801.8315,835.6777,696.6667,0.0,0.0,0.0364990234375,0.0714111328125,1.01409912109375,1.936492919921875,-5.794525146484375,-1.114044189453125,2934945.054945055,112191135.53113551,52558241.75824176,90.89321,1.0,2.0,1.0,1.0,2.0,45.0,/muse/elements/blink,0 days 00:00:00
2023-11-16 11:27:00.512,1.2880565,0.93689436,0.30652925,0.0,0.9332792,0.7631749,0.44933647,0.0,1.0066987,0.5507151,0.29889414,0.0,1.3570634,0.8023955,0.55633366,0.0,1.1234303,0.61450726,0.31278867,0.0,855.82416,789.7436,786.52014,875.16486,709.9634,0.0,0.0,0.0364990234375,0.0714111328125,1.01409912109375,1.936492919921875,-5.794525146484375,-1.114044189453125,2934945.054945055,112191135.53113551,52558241.75824176,90.89321,1.0,2.0,1.0,1.0,2.0,45.0,/muse/elements/blink,0 days 00:00:00.001000
2023-11-16 11:27:00.512,1.2880565,0.93689436,0.30652925,0.0,0.9332792,0.7631749,0.44933647,0.0,1.0066987,0.5507151,0.29889414,0.0,1.3570634,0.8023955,0.55633366,0.0,1.1234303,0.61450726,0.31278867,0.0,848.97437,808.68134,796.5934,882.01465,921.9048,0.0,0.0,0.0364990234375,0.0714111328125,1.01409912109375,1.936492919921875,-5.794525146484375,-1.114044189453125,2934945.054945055,112191135.53113551,52558241.75824176,90.89321,1.0,2.0,1.0,1.0,2.0,45.0,/muse/elements/blink,0 days 00:00:00
2023-11-16 11:27:00.513,1.2880565,0.93689436,0.31868052,0.0,0.9332792,0.7631749,0.48841682,0.0,1.0066987,0.5507151,0.2156672,0.0,1.3570634,0.8023955,0.50844884,0.0,1.1234303,0.61450726,0.3062344,0.0,842.9304,797.8022,813.1135,833.2601,1096.7766,0.0,0.0,0.0364990234375,0.0714111328125,1.01409912109375,1.936492919921875,-5.794525146484375,-1.114044189453125,2934945.054945055,112191135.53113551,52558241.75824176,90.89321,1.0,2.0,1.0,1.0,2.0,45.0,/muse/elements/blink,0 days 00:00:00.001000
2023-11-16 11:27:00.515,1.2880565,0.93689436,0.31868052,0.0,0.9332792,0.7631749,0.48841682,0.0,1.0066987,0.5507151,0.2156672,0.0,1.3570634,0.8023955,0.50844884,0.0,1.1234303,0.61450726,0.3062344,0.0,815.12823,782.8938,810.696,813.1135,809.4872,0.0,0.0,0.0364990234375,0.0714111328125,1.01409912109375,1.936492919921875,-5.794525146484375,-1.114044189453125,2934945.054945055,112191135.53113551,52558241.75824176,90.89321,1.0,2.0,1.0,1.0,2.0,45.0,/muse/elements/blink,0 days 00:00:00.002000
2023-11-16 11:27:00.515,1.2880565,0.93689436,0.31868052,0.0,0.9332792,0.7631749,0.48841682,0.0,1.0066987,0.5507151,0.2156672,0.0,1.3570634,0.8023955,0.50844884,0.0,1.1234303,0.61450726,0.3062344,0.0,799.41394,801.4286,809.0842,823.1868,624.94507,0.0,0.0,0.0364990234375,0.0714111328125,1.01409912109375,1.936492919921875,-5.794525146484375,-1.114044189453125,2934945.054945055,112191135.53113551,52558241.75824176,90.89321,1.0,2.0,1.0,1.0,2.0,45.0,/muse/elements/blink,0 days 00:00:00
2023-11-16 11:27:00.515,1.2880565,0.93689436,0.31868052,0.0,0.9332792,0.7631749,0.48841682,0.0,1.0066987,0.5507151,0.2156672,0.0,1.3570634,0.8023955,0.50844884,0.0,1.1234303,0.61450726,0.3062344,0.0,817.1429,811.0989,799.81683,820.3663,755.09155,0.0,0.0,0.0364990234375,0.0714111328125,1.01409912109375,1.936492919921875,-5.794525146484375,-1.114044189453125,2934945.054945055,112191135.53113551,52558241.75824176,90.89321,1.0,2.0,1.0,1.0,2.0,45.0,/muse/elements/blink,0 days 00:00:00
2023-11-16 11:27:00.516,1.2880565,0.93689436,0.31868052,0.0,0.9332792,0.7631749,0.48841682,0.0,1.0066987,0.5507151,0.2156672,0.0,1.3570634,0.8023955,0.50844884,0.0,1.1234303,0.61450726,0.3062344,0.0,808.68134,786.52014,794.9817,812.3077,733.73627,0.0,0.0,0.0364990234375,0.0714111328125,1.01409912109375,1.936492919921875,-5.794525146484375,-1.114044189453125,2934945.054945055,112191135.53113551,52558241.75824176,90.89321,1.0,2.0,1.0,1.0,2.0,45.0,/muse/elements/blink,0 days 00:00:00.001000
2023-11-16 11:27:00.557,1.2880565,0.93689436,0.31868052,0.0,0.9332792,0.7631749,0.48841682,0.0,1.0066987,0.5507151,0.2156672,0.0,1.3570634,0.8023955,0.50844884,0.0,1.1234303,0.61450726,0.3062344,0.0,803.44324,784.10254,780.07324,820.7692,601.1722,0.0,0.0,0.03131103515625,0.07373046875,1.00750732421875,0.336456298828125,-5.749664306640625,-0.59814453125,2934945.054945055,112191135.53113551,52558241.75824176,90.89321,1.0,2.0,1.0,1.0,2.0,45.0,/muse/elements/blink,0 days 00:00:00.041000
2023-11-16 11:27:00.558,1.2880565,0.93689436,0.31868052,0.0,0.9332792,0.7631749,0.48841682,0.0,1.0066987,0.5507151,0.2156672,0.0,1.3570634,0.8023955,0.50844884,0.0,1.1234303,0.61450726,0.3062344,0.0,845.7509,814.7253,779.67035,819.15753,717.619,0.0,0.0,0.03131103515625,0.07373046875,1.00750732421875,0.336456298828125,-5.749664306640625,-0.59814453125,2934945.054945055,112191135.53113551,52558241.75824176,90.89321,1.0,2.0,1.0,1.0,2.0,45.0,/muse/elements/blink,0 days 00:00:00.001000
2023-11-16 11:27:00.559,1.2880565,0.93689436,0.31868052,0.0,0.9332792,0.7631749,0.48841682,0.0,1.0066987,0.5507151,0.2156672,0.0,1.3570634,0.8023955,0.50844884,0.0,1.1234303,0.61450726,0.3062344,0.0,873.1502,802.23444,792.1612,818.3516,903.7729,0.0,0.0,0.03131103515625,0.07373046875,1.00750732421875,0.336456298828125,-5.749664306640625,-0.59814453125,2934945.054945055,112191135.53113551,52558241.75824176,90.89321,1.0,2.0,1.0,1.0,2.0,45.0,/muse/elements/blink,0 days 00:00:00.001000
2023-11-16 11:27:00.559,1.2880565,0.93689436,0.31868052,0.0,0.9332792,0.7631749,0.48841682,0.0,1.0066987,0.5507151,0.2156672,0.0,1.3570634,0.8023955,0.50844884,0.0,1.1234303,0.61450726,0.3062344,0.0,836.8865,787.72894,789.34064,853.4066,776.8498,0.0,0.0,0.03131103515625,0.07373046875,1.00750732421875,0.336456298828125,-5.749664306640625,-0.59814453125,2934945.054945055,112191135.53113551,52558241.75824176,90.89321,1.0,2.0,1.0,1.0,2.0,45.0,/muse/elements/blink,0 days 00:00:00
2023-11-16 11:27:00.560,1.2880565,0.93689436,0.31868052,0.0,0.9332792,0.7631749,0.48841682,0.0,1.0066987,0.5507151,0.2156672,0.0,1.3570634,0.8023955,0.50844884,0.0,1.1234303,0.61450726,0.3062344,0.0,805.8608,819.5604,795.78754,839.707,616.4835,0.0,0.0,0.03131103515625,0.07373046875,1.00750732421875,0.336456298828125,-5.749664306640625,-0.59814453125,2934945.054945055,112191135.53113551,52558241.75824176,90.89321,1.0,2.0,1.0,1.0,2.0,45.0,/muse/elements/blink,0 days 00:00:00.001000
2023-11-16 11:27:00.560,1.2880565,0.93689436,0.31868052,0.0,0.9332792,0.7631749,0.48841682,0.0,1.0066987,0.5507151,0.2156672,0.0,1.3570634,0.8023955,0.50844884,0.0,1.1234303,0.61450726,0.3062344,0.0,796.1905,803.44324,802.23444,793.36993,635.0183,0.0,0.0,0.03131103515625,0.07373046875,1.00750732421875,0.336456298828125,-5.749664306640625,-0.59814453125,2934945.054945055,112191135.53113551,52558241.75824176,90.89321,1.0,2.0,1.0,1.0,2.0,45.0,/muse/elements/blink,0 days 00:00:00
2023-11-16 11:27:00.561,1.2880565,0.93689436,0.31868052,0.0,0.9332792,0.7631749,0.48841682,0.0,1.0066987,0.5507151,0.2156672,0.0,1.3570634,0.8023955,0.50844884,0.0,1.1234303,0.61450726,0.3062344,0.0,811.9048,757.9121,800.2198,836.4835,890.4762,0.0,0.0,0.03131103515625,0.07373046875,1.00750732421875,0.336456298828125,-5.749664306640625,-0.59814453125,2934945.054945055,112191135.53113551,52558241.75824176,90.89321,1.0,2.0,1.0,1.0,2.0,45.0,/muse/elements/blink,0 days 00:00:00.001000
2023-11-16 11:27:00.561,1.2880565,0.93689436,0.31868052,0.0,0.9332792,0.7631749,0.48841682,0.0,1.0066987,0.5507151,0.2156672,0.0,1.3570634,0.8023955,0.50844884,0.0,1.1234303,0.61450726,0.3062344,0.0,850.58606,797.8022,796.1905,819.9634,879.59705,0.0,0.0,0.03131103515625,0.07373046875,1.00750732421875,0.336456298828125,-5.749664306640625,-0.59814453125,2934945.054945055,112191135.53113551,52558241.75824176,90.89321,1.0,2.0,1.0,1.0,2.0,45.0,/muse/elements/blink,0 days 00:00:00
2023-11-16 11:27:00.562,1.2880565,0.93689436,0.31868052,0.0,0.9332792,0.7631749,0.48841682,0.0,1.0066987,0.5507151,0.2156672,0.0,1.3570634,0.8023955,0.50844884,0.0,1.1234303,0.61450726,0.3062344,0.0,801.4286,838.9011,794.57874,784.10254,690.2198,0.0,0.0,0.03131103515625,0.07373046875,1.00750732421875,0.336456298828125,-5.749664306640625,-0.59814453125,2934945.054945055,112191135.53113551,52558241.75824176,90.89321,1.0,2.0,1.0,1.0,2.0,45.0,/muse/elements/blink,0 days 00:00:00.001000
2023-11-16 11:27:00.562,1.2880565,0.93689436,0.31868052,0.0,0.9332792,0.7631749,0.48841682,0.0,1.0066987,0.5507151,0.2156672,0.0,1.3570634,0.8023955,0.50844884,0.0,1.1234303,0.61450726,0.3062344,0.0,786.52014,827.2161,802.23444,814.3223,732.9304,0.0,0.0,0.03131103515625,0.07373046875,1.00750732421875,0.336456298828125,-5.749664306640625,-0.59814453125,2934945.054945055,112191135.53113551,52558241.75824176,90.89321,1.0,2.0,1.0,1.0,2.0,45.0,/muse/elements/blink,0 days 00:00:00
2023-11-16 11:27:00.563,1.2880565,0.93689436,0.31868052,0.0,0.9332792,0.7631749,0.48841682,0.0,1.0066987,0.5507151,0.2156672,0.0,1.3570634,0.8023955,0.50844884,0.0,1.1234303,0.61450726,0.3062344,0.0,786.9231,822.381,811.9048,832.0513,759.12085,0.0,0.0,0.03131103515625,0.07373046875,1.00750732421875,0.336456298828125,-5.749664306640625,-0.59814453125,2934945.054945055,112191135.53113551,52558241.75824176,90.89321,1.0,2.0,1.0,1.0,2.0,45.0,/muse/elements/blink,0 days 00:00:00.001000
2023-11-16 11:27:00.563,1.2880565,0.93689436,0.31868052,0.0,0.9332792,0.7631749,0.48841682,0.0,1.0066987,0.5507151,0.2156672,0.0,1.3570634,0.8023955,0.50844884,0.0,1.1234303,0.61450726,0.3062344,0.0,799.41394,823.5897,821.5751,822.381,747.03296,0.0,0.0,0.03131103515625,0.07373046875,1.00750732421875,0.336456298828125,-5.749664306640625,-0.59814453125,2934945.054945055,112191135.53113551,52558241.75824176,90.89321,1.0,2.0,1.0,1.0,2.0,45.0,/muse/elements/blink,0 days 00:00:00
2023-11-16 11:27:00.622,1.2880565,0.93689436,0.31868052,0.0,0.9332792,0.7631749,0.48841682,0.0,1.0066987,0.5507151,0.2156672,0.0,1.3570634,0.8023955,0.50844884,0.0,1.1234303,0.61450726,0.3062344,0.0,853.4066,769.19415,788.5348,844.5421,713.1868,0.0,0.0,0.04107666015625,0.0684814453125,1.0194091796875,-2.73651123046875,-2.190704345703125,-0.64300537109375,2888205.128205128,112329743.58974358,52632380.95238095,90.02401,1.0,2.0,1.0,1.0,2.0,45.0,/muse/elements/blink,0 days 00:00:00.059000
2023-11-16 11:27:00.623,1.2880565,0.93689436,0.31868052,0.0,0.9332792,0.7631749,0.48841682,0.0,1.0066987,0.5507151,0.2156672,0.0,1.3570634,0.8023955,0.50844884,0.0,1.1234303,0.61450726,0.3062344,0.0,835.2747,731.31866,720.4396,884.83514,754.68866,0.0,0.0,0.04107666015625,0.0684814453125,1.0194091796875,-2.73651123046875,-2.190704345703125,-0.64300537109375,2888205.128205128,112329743.58974358,52632380.95238095,90.02401,1.0,2.0,1.0,1.0,2.0,45.0,/muse/elements/blink,0 days 00:00:00.001000
2023-11-16 11:27:00.623,1.2880565,0.93689436,0.31868052,0.0,0.9332792,0.7631749,0.48841682,0.0,1.0066987,0.5507151,0.2156672,0.0,1.3570634,0.8023955,0.50844884,0.0,1.1234303,0.61450726,0.3062344,0.0,825.6044,802.6374,751.06226,854.21246,783.2967,0.0,0.0,0.04107666015625,0.0684814453125,1.0194091796875,-2.73651123046875,-2.190704345703125,-0.64300537109375,2888205.128205128,112329743.58974358,52632380.95238095,90.02401,1.0,2.0,1.0,1.0,2.0,45.0,/muse/elements/blink,0 days 00:00:00
2023-11-16 11:27:00.623,1.2880565,0.93689436,0.31868052,0.0,0.9332792,0.7631749,0.48841682,0.0,1.0066987,0.5507151,0.2156672,0.0,1.3570634,0.8023955,0.50844884,0.0,1.1234303,0.61450726,0.3062344,0.0,826.0073,877.5824,840.9158,809.89014,690.2198,0.0,0.0,0.04107666015625,0.0684814453125,1.0194091796875,-2.73651123046875,-2.190704345703125,-0.64300537109375,2888205.128205128,112329743.58974358,52632380.95238095,90.02401,1.0,2.0,1.0,1.0,2.0,45.0,/muse/elements/blink,0 days 00:00:00
2023-11-16 11:27:00.624,1.2880565,0.93689436,0.31868052,0.0,0.9332792,0.7631749,0.48841682,0.0,1.0066987,0.5507151,0.2156672,0.0,1.3570634,0.8023955,0.50844884,0.0,1.1234303,0.61450726,0.3062344,0.0,826.0073,875.9707,859.85345,826.8132,648.315,0.0,0.0,0.04107666015625,0.0684814453125,1.0194091796875,-2.73651123046875,-2.190704345703125,-0.64300537109375,2888205.128205128,112329743.58974358,52632380.95238095,90.02401,1.0,2.0,1.0,1.0,2.0,45.0,/muse/elements/blink,0 days 00:00:00.001000
2023-11-16 11:27:00.624,1.2880565,0.93689436,0.31868052,0.0,0.9332792,0.7631749,0.48841682,0.0,1.0066987,0.5507151,0.2156672,0.0,1.3570634,0.8023955,0.50844884,0.0,1.1234303,0.61450726,0.3062344,0.0,850.18317,855.42126,842.9304,813.1135,850.58606,0.0,0.0,0.04107666015625,0.0684814453125,1.0194091796875,-2.73651123046875,-2.190704345703125,-0.64300537109375,2888205.128205128,112329743.58974358,52632380.95238095,90.02401,1.0,2.0,1.0,1.0,2.0,45.0,/muse/elements/blink,0 days 00:00:00
2023-11-16 11:27:00.625,1.2880565,0.93689436,0.31868052,0.0,0.9332792,0.7631749,0.48841682,0.0,1.0066987,0.5507151,0.2156672,0.0,1.3570634,0.8023955,0.50844884,0.0,1.1234303,0.61450726,0.3062344,0.0,839.304,863.0769,839.707,807.0696,918.2784,0.0,0.0,0.04107666015625,0.0684814453125,1.0194091796875,-2.73651123046875,-2.190704345703125,-0.64300537109375,2888205.128205128,112329743.58974358,52632380.95238095,90.02401,1.0,2.0,1.0,1.0,2.0,45.0,/muse/elements/blink,0 days 00:00:00.001000
2023-11-16 11:27:00.625,1.2880565,0.93689436,0.31868052,0.0,0.9332792,0.7631749,0.48841682,0.0,1.0066987,0.5507151,0.2156672,0.0,1.3570634,0.8023955,0.50844884,0.0,1.1234303,0.61450726,0.3062344,0.0,781.28204,882.8205,847.76556,817.5458,726.4835,0.0,0.0,0.04107666015625,0.0684814453125,1.0194091796875,-2.73651123046875,-2.190704345703125,-0.64300537109375,2888205.128205128,112329743.58974358,52632380.95238095,90.02401,1.0,2.0,1.0,1.0,2.0,45.0,/muse/elements/blink,0 days 00:00:00
2023-11-16 11:27:00.626,1.2880565,0.93689436,0.31868052,0.0,0.9332792,0.7631749,0.48841682,0.0,1.0066987,0.5507151,0.2156672,0.0,1.3570634,0.8023955,0.50844884,0.0,1.1234303,0.61450726,0.3062344,0.0,817.9487,809.89014,816.337,875.16486,670.07324,0.0,0.0,0.04107666015625,0.0684814453125,1.0194091796875,-2.73651123046875,-2.190704345703125,-0.64300537109375,2888205.128205128,112329743.58974358,52632380.95238095,90.02401,1.0,2.0,1.0,1.0,2.0,45.0,/muse/elements/blink,0 days 00:00:00.001000
2023-11-16 11:27:00.626,1.2880565,0.93689436,0.3313199,0.0,0.9332792,0.7631749,0.532044,0.0,1.0066987,0.5507151,0.18969484,0.0,1.3570634,0.8023955,0.4616523,0.0,1.1234303,0.61450726,0.30348924,0.0,863.0769,713.9927,781.685,933.5897,793.7729,0.0,0.0,0.04107666015625,0.0684814453125,1.0194091796875,-2.73651123046875,-2.190704345703125,-0.64300537109375,2888205.128205128,112329743.58974358,52632380.95238095,90.02401,1.0,2.0,1.0,1.0,2.0,45.0,/muse/elements/blink,0 days 00:00:00
2023-11-16 11:27:00.628,1.2880565,0.93689436,0.3313199,0.0,0.9332792,0.7631749,0.532044,0.0,1.0066987,0.5507151,0.18969484,0.0,1.3570634,0.8023955,0.4616523,0.0,1.1234303,0.61450726,0.30348924,0.0,816.337,789.34064,823.9927,862.27106,784.10254,0.0,0.0,0.04107666015625,0.0684814453125,1.0194091796875,-2.73651123046875,-2.190704345703125,-0.64300537109375,2888205.128205128,112329743.58974358,52632380.95238095,90.02401,1.0,2.0,1.0,1.0,2.0,45.0,/muse/elements/blink,0 days 00:00:00.002000
2023-11-16 11:27:00.628,1.2880565,0.93689436,0.3313199,0.0,0.9332792,0.7631749,0.532044,0.0,1.0066987,0.5507151,0.18969484,0.0,1.3570634,0.8023955,0.4616523,0.0,1.1234303,0.61450726,0.30348924,0.0,771.6117,938.4249,902.1612,837.6923,643.47986,0.0,0.0,0.04107666015625,0.0684814453125,1.0194091796875,-2.73651123046875,-2.190704345703125,-0.64300537109375,2888205.128205128,112329743.58974358,52632380.95238095,90.02401,1.0,2.0,1.0,1.0,2.0,45.0,/muse/elements/blink,0 days 00:00:00
2023-11-16 11:27:00.654,1.2880565,0.93689436,0.3313199,0.0,0.9332792,0.7631749,0.532044,0.0,1.0066987,0.5507151,0.18969484,0.0,1.3570634,0.8023955,0.4616523,0.0,1.1234303,0.61450726,0.30348924,0.0,812.71063,1012.96704,906.5934,878.3883,608.8278,0.0,0.0,0.00897216796875,0.0489501953125,1.00457763671875,-0.64300537109375,-2.2430419921875,-4.029998779296875,2888205.128205128,112329743.58974358,52632380.95238095,90.02401,1.0,2.0,1.0,1.0,2.0,45.0,/muse/elements/blink,0 days 00:00:00.026000
2023-11-16 11:27:00.654,1.2880565,0.93689436,0.3313199,0.0,0.9332792,0.7631749,0.532044,0.0,1.0066987,0.5507151,0.18969484,0.0,1.3570634,0.8023955,0.4616523,0.0,1.1234303,0.61450726,0.30348924,0.0,865.4945,1037.1428,862.27106,896.1172,697.8755,0.0,0.0,0.00897216796875,0.0489501953125,1.00457763671875,-0.64300537109375,-2.2430419921875,-4.029998779296875,2888205.128205128,112329743.58974358,52632380.95238095,90.02401,1.0,2.0,1.0,1.0,2.0,45.0,/muse/elements/blink,0 days 00:00:00
2023-11-16 11:27:00.655,1.2880565,0.93689436,0.3313199,0.0,0.9332792,0.7631749,0.532044,0.0,1.0066987,0.5507151,0.18969484,0.0,1.3570634,0.8023955,0.4616523,0.0,1.1234303,0.61450726,0.30348924,0.0,874.35895,1036.337,882.4176,890.4762,742.6007,0.0,0.0,0.00897216796875,0.0489501953125,1.00457763671875,-0.64300537109375,-2.2430419921875,-4.029998779296875,2888205.128205128,112329743.58974358,52632380.95238095,90.02401,1.0,2.0,1.0,1.0,2.0,45.0,/muse/elements/blink,0 days 00:00:00.001000
2023-11-16 11:27:00.655,1.2880565,0.93689436,0.3313199,0.0,0.9332792,0.7631749,0.532044,0.0,1.0066987,0.5507151,0.18969484,0.0,1.3570634,0.8023955,0.4616523,0.0,1.1234303,0.61450726,0.30348924,0.0,871.13556,1040.3663,878.3883,963.8095,692.6374,0.0,0.0,0.00897216796875,0.0489501953125,1.00457763671875,-0.64300537109375,-2.2430419921875,-4.029998779296875,2888205.128205128,112329743.58974358,52632380.95238095,90.02401,1.0,2.0,1.0,1.0,2.0,45.0,/muse/elements/blink,0 days 00:00:00
2023-11-16 11:27:00.656,1.2880565,0.93689436,0.3313199,0.0,0.9332792,0.7631749,0.532044,0.0,1.0066987,0.5507151,0.18969484,0.0,1.3570634,0.8023955,0.4616523,0.0,1.1234303,0.61450726,0.30348924,0.0,882.8205,1030.2931,792.1612,981.53845,680.14655,0.0,0.0,0.00897216796875,0.0489501953125,1.00457763671875,-0.64300537109375,-2.2430419921875,-4.029998779296875,2888205.128205128,112329743.58974358,52632380.95238095,90.02401,1.0,2.0,1.0,1.0,2.0,45.0,/muse/elements/blink,0 days 00:00:00.001000
2023-11-16 11:27:00.656,1.2880565,0.93689436,0.3313199,0.0,0.9332792,0.7631749,0.532044,0.0,1.0066987,0.5507151,0.18969484,0.0,1.3570634,0.8023955,0.4616523,0.0,1.1234303,0.61450726,0.30348924,0.0,848.5714,1019.41394,913.8461,935.6044,1000.4762,0.0,0.0,0.00897216796875,0.0489501953125,1.00457763671875,-0.64300537109375,-2.2430419921875,-4.029998779296875,2888205.128205128,112329743.58974358,52632380.95238095,90.02401,1.0,2.0,1.0,1.0,2.0,45.0,/muse/elements/blink,0 days 00:00:00
2023-11-16 11:27:00.656,1.2880565,0.93689436,0.3313199,0.0,0.9332792,0.7631749,0.532044,0.0,1.0066987,0.5507151,0.18969484,0.0,1.3570634,0.8023955,0.4616523,0.0,1.1234303,0.61450726,0.30348924,0.0,800.2198,1152.7839,1065.751,929.5604,1178.1685,0.0,0.0,0.00897216796875,0.0489501953125,1.00457763671875,-0.64300537109375,-2.2430419921875,-4.029998779296875,2888205.128205128,112329743.58974358,52632380.95238095,90.02401,1.0,2.0,1.0,1.0,2.0,45.0,/muse/elements/blink,0 days 00:00:00
2023-11-16 11:27:00.657,1.2880565,0.93689436,0.3313199,0.0,0.9332792,0.7631749,0.532044,0.0,1.0066987,0.5507151,0.18969484,0.0,1.3570634,0.8023955,0.4616523,0.0,1.1234303,0.61450726,0.30348924,0.0,795.78754,1296.63,1068.5714,903.7729,837.6923,0.0,0.0,0.00897216796875,0.0489501953125,1.00457763671875,-0.64300537109375,-2.2430419921875,-4.029998779296875,2888205.128205128,112329743.58974358,52632380.95238095,90.02401,1.0,2.0,1.0,1.0,2.0,45.0,/muse/elements/blink,0 days 00:00:00.001000
2023-11-16 11:27:00.657,1.2880565,0.93689436,0.3313199,0.0,0.9332792,0.7631749,0.532044,0.0,1.0066987,0.5507151,0.18969484,0.0,1.3570634,0.8023955,0.4616523,0.0,1.1234303,0.61450726,0.30348924,0.0,853.00366,1373.1868,1057.6923,906.1905,675.7143,0.0,0.0,0.00897216796875,0.0489501953125,1.00457763671875,-0.64300537109375,-2.2430419921875,-4.029998779296875,2888205.128205128,112329743.58974358,52632380.95238095,90.02401,1.0,2.0,1.0,1.0,2.0,45.0,/muse/elements/blink,0 days 00:00:00
2023-11-16 11:27:00.657,1.2880565,0.93689436,0.3313199,0.0,0.9332792,0.7631749,0.532044,0.0,1.0066987,0.5507151,0.18969484,0.0,1.3570634,0.8023955,0.4616523,0.0,1.1234303,0.61450726,0.30348924,0.0,940.84247,1481.1721,1072.6007,921.50183,689.011,0.0,0.0,0.00897216796875,0.0489501953125,1.00457763671875,-0.64300537109375,-2.2430419921875,-4.029998779296875,2888205.128205128,112329743.58974358,52632380.95238095,90.02401,1.0,2.0,1.0,1.0,2.0,45.0,/muse/elements/blink,0 days 00:00:00
2023-11-16 11:27:00.657,1.2880565,0.93689436,0.3313199,0.0,0.9332792,0.7631749,0.532044,0.0,1.0066987,0.5507151,0.18969484,0.0,1.3570634,0.8023955,0.4616523,0.0,1.1234303,0.61450726,0.30348924,0.0,929.15753,1508.5714,1048.8279,988.7912,567.72894,0.0,0.0,0.00897216796875,0.0489501953125,1.00457763671875,-0.64300537109375,-2.2430419921875,-4.029998779296875,2888205.128205128,112329743.58974358,52632380.95238095,90.02401,1.0,2.0,1.0,1.0,2.0,45.0,/muse/elements/blink,0 days 00:00:00
2023-11-16 11:27:00.658,1.2880565,0.93689436,0.3313199,0.0,0.9332792,0.7631749,0.532044,0.0,1.0066987,0.5507151,0.18969484,0.0,1.3570634,0.8023955,0.4616523,0.0,1.1234303,0.61450726,0.30348924,0.0,867.1062,1541.2087,1035.5311,1012.5641,529.0476,0.0,0.0,0.00897216796875,0.0489501953125,1.00457763671875,-0.64300537109375,-2.2430419921875,-4.029998779296875,2888205.128205128,112329743.58974358,52632380.95238095,90.02401,1.0,2.0,1.0,1.0,2.0,45.0,/muse/elements/blink,0 days 00:00:00.001000
2023-11-16 11:27:00.721,1.2880565,0.93689436,0.3313199,0.0,0.9332792,0.7631749,0.532044,0.0,1.0066987,0.5507151,0.18969484,0.0,1.3570634,0.8023955,0.4616523,0.0,1.1234303,0.61450726,0.30348924,0.0,932.381,1624.6154,1128.608,958.97437,595.9341,0.0,0.0,0.00897216796875,0.0489501953125,1.00457763671875,-0.64300537109375,-2.2430419921875,-4.029998779296875,2544908.4249084247,112200805.86080584,52762930.4029304,89.205666,1.0,2.0,1.0,1.0,2.0,45.0,/muse/elements/blink,0 days 00:00:00.063000
2023-11-16 11:27:00.722,1.2880565,0.93689436,0.3313199,0.0,0.9332792,0.7631749,0.532044,0.0,1.0066987,0.5507151,0.18969484,0.0,1.3570634,0.8023955,0.4616523,0.0,1.1234303,0.61450726,0.30348924,0.0,921.50183,1625.4213,1172.5275,950.9158,587.0696,0.0,0.0,0.00897216796875,0.0489501953125,1.00457763671875,-0.64300537109375,-2.2430419921875,-4.029998779296875,2544908.4249084247,112200805.86080584,52762930.4029304,89.205666,1.0,2.0,1.0,1.0,2.0,45.0,/muse/elements/blink,0 days 00:00:00.001000
2023-11-16 11:27:00.722,1.2880565,0.93689436,0.3313199,0.0,0.9332792,0.7631749,0.532044,0.0,1.0066987,0.5507151,0.18969484,0.0,1.3570634,0.8023955,0.4616523,0.0,1.1234303,0.61450726,0.30348924,0.0,815.9341,1622.6007,1199.9268,951.7216,533.47986,0.0,0.0,0.00897216796875,0.0489501953125,1.00457763671875,-0.64300537109375,-2.2430419921875,-4.029998779296875,2544908.4249084247,112200805.86080584,52762930.4029304,89.205666,1.0,2.0,1.0,1.0,2.0,45.0,/muse/elements/blink,0 days 00:00:00
2023-11-16 11:27:00.723,1.2880565,0.93689436,0.3313199,0.0,0.9332792,0.7631749,0.532044,0.0,1.0066987,0.5507151,0.18969484,0.0,1.3570634,0.8023955,0.4616523,0.0,1.1234303,0.61450726,0.30348924,0.0,852.1978,1625.0183,1236.9963,936.4103,464.1758,0.0,0.0,0.00897216796875,0.0489501953125,1.00457763671875,-0.64300537109375,-2.2430419921875,-4.029998779296875,2544908.4249084247,112200805.86080584,52762930.4029304,89.205666,1.0,2.0,1.0,1.0,2.0,45.0,/muse/elements/blink,0 days 00:00:00.001000
2023-11-16 11:27:00.723,1.2880565,0.93689436,0.3313199,0.0,0.9332792,0.7631749,0.532044,0.0,1.0066987,0.5507151,0.18969484,0.0,1.3570634,0.8023955,0.4616523,0.0,1.1234303,0.61450726,0.30348924,0.0,867.9121,1624.6154,1231.7583,918.68134,539.12085,0.0,0.0,0.00897216796875,0.0489501953125,1.00457763671875,-0.64300537109375,-2.2430419921875,-4.029998779296875,2544908.4249084247,112200805.86080584,52762930.4029304,89.205666,1.0,2.0,1.0,1.0,2.0,45.0,/muse/elements/blink,0 days 00:00:00
2023-11-16 11:27:00.724,1.2880565,0.93689436,0.3313199,0.0,0.9332792,0.7631749,0.532044,0.0,1.0066987,0.5507151,0.18969484,0.0,1.3570634,0.8023955,0.4616523,0.0,1.1234303,0.61450726,0.30348924,0.0,831.6484,1624.6154,1230.1465,931.1722,618.9011,0.0,0.0,0.00897216796875,0.0489501953125,1.00457763671875,-0.64300537109375,-2.2430419921875,-4.029998779296875,2544908.4249084247,112200805.86080584,52762930.4029304,89.205666,1.0,2.0,1.0,1.0,2.0,45.0,/muse/elements/blink,0 days 00:00:00.001000
2023-11-16 11:27:00.724,1.2880565,0.93689436,0.3313199,0.0,0.9332792,0.7631749,0.532044,0.0,1.0066987,0.5507151,0.18969484,0.0,1.3570634,0.8023955,0.4616523,0.0,1.1234303,0.61450726,0.30348924,0.0,799.41394,1624.6154,1249.4872,920.293,505.67764,0.0,0.0,0.00897216796875,0.0489501953125,1.00457763671875,-0.64300537109375,-2.2430419921875,-4.029998779296875,2544908.4249084247,112200805.86080584,52762930.4029304,89.205666,1.0,2.0,1.0,1.0,2.0,45.0,/muse/elements/blink,0 days 00:00:00
2023-11-16 11:27:00.724,1.2880565,0.93689436,0.3313199,0.0,0.9332792,0.7631749,0.532044,0.0,1.0066987,0.5507151,0.18969484,0.0,1.3570634,0.8023955,0.4616523,0.0,1.1234303,0.61450726,0.30348924,0.0,815.12823,1624.6154,1262.381,895.31134,473.84616,0.0,0.0,0.00897216796875,0.0489501953125,1.00457763671875,-0.64300537109375,-2.2430419921875,-4.029998779296875,2544908.4249084247,112200805.86080584,52762930.4029304,89.205666,1.0,2.0,1.0,1.0,2.0,45.0,/muse/elements/blink,0 days 00:00:00
2023-11-16 11:27:00.725,1.2880565,0.93689436,0.3313199,0.0,0.9332792,0.7631749,0.532044,0.0,1.0066987,0.5507151,0.18969484,0.0,1.3570634,0.8023955,0.4616523,0.0,1.1234303,0.61450726,0.30348924,0.0,849.7802,1624.6154,1268.022,880.80585,586.6667,0.0,0.0,0.00897216796875,0.0489501953125,1.00457763671875,-0.64300537109375,-2.2430419921875,-4.029998779296875,2544908.4249084247,112200805.86080584,52762930.4029304,89.205666,1.0,2.0,1.0,1.0,2.0,45.0,/muse/elements/blink,0 days 00:00:00.001000
2023-11-16 11:27:00.725,1.2880565,0.93689436,0.3313199,0.0,0.9332792,0.7631749,0.532044,0.0,1.0066987,0.5507151,0.18969484,0.0,1.3570634,0.8023955,0.4616523,0.0,1.1234303,0.61450726,0.30348924,0.0,861.8681,1624.6154,1261.978,883.6264,713.9927,0.0,0.0,0.00897216796875,0.0489501953125,1.00457763671875,-0.64300537109375,-2.2430419921875,-4.029998779296875,2544908.4249084247,112200805.86080584,52762930.4029304,89.205666,1.0,2.0,1.0,1.0,2.0,45.0,/muse/elements/blink,0 days 00:00:00
2023-11-16 11:27:00.726,1.2880565,0.93689436,0.3313199,0.0,0.9332792,0.7631749,0.532044,0.0,1.0066987,0.5507151,0.18969484,0.0,1.3570634,0.8023955,0.4616523,0.0,1.1234303,0.61450726,0.30348924,0.0,778.0586,1624.6154,1269.6337,894.5055,456.92307,0.0,0.0,0.00897216796875,0.0489501953125,1.00457763671875,-0.64300537109375,-2.2430419921875,-4.029998779296875,2544908.4249084247,112200805.86080584,52762930.4029304,89.205666,1.0,2.0,1.0,1.0,2.0,45.0,/muse/elements/blink,0 days 00:00:00.001000
2023-11-16 11:27:00.727,1.2880565,0.93689436,0.3313199,0.0,0.9332792,0.7631749,0.532044,0.0,1.0066987,0.5507151,0.18969484,0.0,1.3570634,0.8023955,0.4616523,0.0,1.1234303,0.61450726,0.30348924,0.0,778.0586,1624.6154,1269.6337,894.5055,456.92307,0.0,0.0,0.00897216796875,0.0489501953125,1.00457763671875,-0.64300537109375,-2.2430419921875,-4.029998779296875,2544908.4249084247,112200805.86080584,52762930.4029304,89.205666,1.0,2.0,1.0,1.0,2.0,45.0,/muse/elements/jaw_clench,0 days 00:00:00.001000
2023-11-16 11:27:00.726,1.2880565,0.93689436,0.31749326,0.0,0.9332792,0.7631749,0.57155824,0.0,1.0066987,0.5507151,0.183382,0.0,1.3570634,0.8023955,0.43171066,0.0,1.1234303,0.61450726,0.30840352,0.0,790.9524,1624.6154,1259.1575,873.1502,291.72162,0.0,0.0,0.00897216796875,0.0489501953125,1.00457763671875,-0.64300537109375,-2.2430419921875,-4.029998779296875,2544908.4249084247,112200805.86080584,52762930.4029304,89.205666,1.0,2.0,1.0,1.0,2.0,45.0,/muse/elements/jaw_clench,-1 days +23:59:59.999000
2023-11-16 11:27:00.753,1.2880565,0.93689436,0.31749326,0.0,0.9332792,0.7631749,0.57155824,0.0,1.0066987,0.5507151,0.183382,0.0,1.3570634,0.8023955,0.43171066,0.0,1.1234303,0.61450726,0.30840352,0.0,762.74725,1624.6154,1241.0256,861.06226,356.1905,0.0,0.0,0.037841796875,0.0426025390625,0.992919921875,0.6280517578125,-16.1798095703125,-3.058013916015625,2544908.4249084247,112200805.86080584,52762930.4029304,89.205666,1.0,2.0,1.0,1.0,2.0,45.0,/muse/elements/jaw_clench,0 days 00:00:00.027000
2023-11-16 11:27:00.753,1.2880565,0.93689436,0.31749326,0.0,0.9332792,0.7631749,0.57155824,0.0,1.0066987,0.5507151,0.183382,0.0,1.3570634,0.8023955,0.43171066,0.0,1.1234303,0.61450726,0.30840352,0.0,731.7216,1624.6154,1258.3517,821.1722,325.16483,0.0,0.0,0.037841796875,0.0426025390625,0.992919921875,0.6280517578125,-16.1798095703125,-3.058013916015625,2544908.4249084247,112200805.86080584,52762930.4029304,89.205666,1.0,2.0,1.0,1.0,2.0,45.0,/muse/elements/jaw_clench,0 days 00:00:00
2023-11-16 11:27:00.754,1.2880565,0.93689436,0.31749326,0.0,0.9332792,0.7631749,0.57155824,0.0,1.0066987,0.5507151,0.183382,0.0,1.3570634,0.8023955,0.43171066,0.0,1.1234303,0.61450726,0.30840352,0.0,778.86444,1624.6154,1259.5604,802.23444,318.31503,0.0,0.0,0.037841796875,0.0426025390625,0.992919921875,0.6280517578125,-16.1798095703125,-3.058013916015625,2544908.4249084247,112200805.86080584,52762930.4029304,89.205666,1.0,2.0,1.0,1.0,2.0,45.0,/muse/elements/jaw_clench,0 days 00:00:00.001000
2023-11-16 11:27:00.754,1.2880565,0.93689436,0.31749326,0.0,0.9332792,0.7631749,0.57155824,0.0,1.0066987,0.5507151,0.183382,0.0,1.3570634,0.8023955,0.43171066,0.0,1.1234303,0.61450726,0.30840352,0.0,823.9927,1624.6154,1258.7546,829.2308,299.7802,0.0,0.0,0.037841796875,0.0426025390625,0.992919921875,0.6280517578125,-16.1798095703125,-3.058013916015625,2544908.4249084247,112200805.86080584,52762930.4029304,89.205666,1.0,2.0,1.0,1.0,2.0,45.0,/muse/elements/jaw_clench,0 days 00:00:00
2023-11-16 11:27:00.754,1.2880565,0.93689436,0.31749326,0.0,0.9332792,0.7631749,0.57155824,0.0,1.0066987,0.5507151,0.183382,0.0,1.3570634,0.8023955,0.43171066,0.0,1.1234303,0.61450726,0.30840352,0.0,819.9634,1624.6154,1233.37,804.2491,388.4249,0.0,0.0,0.037841796875,0.0426025390625,0.992919921875,0.6280517578125,-16.1798095703125,-3.058013916015625,2544908.4249084247,112200805.86080584,52762930.4029304,89.205666,1.0,2.0,1.0,1.0,2.0,45.0,/muse/elements/jaw_clench,0 days 00:00:00
