TimeStamp,Delta_TP9,Delta_AF7,Delta_AF8,Delta_TP10,Theta_TP9,Theta_AF7,Theta_AF8,Theta_TP10,Alpha_TP9,Alpha_AF7,Alpha_AF8,Alpha_TP10,Beta_TP9,Beta_AF7,Beta_AF8,Beta_TP10,Gamma_TP9,Gamma_AF7,Gamma_AF8,Gamma_TP10,RAW_TP9,RAW_AF7,RAW_AF8,RAW_TP10,AUX_RIGHT,Mellow,Concentration,Accelerometer_X,Accelerometer_Y,Accelerometer_Z,Gyro_X,Gyro_Y,Gyro_Z,PPG_Ambient,PPG_IR,PPG_Red,Heart_Rate,HeadBandOn,HSI_TP9,HSI_AF7,HSI_AF8,HSI_TP10,Battery,Elements,TimeDifference
2023-11-09 13:27:43.514,0.9966696,0.90224975,0.0,0.5626425,1.1368661,-0.3456213,0.0,0.07776274,1.0562171,0.048103098,0.0,0.44412607,0.8009656,0.08777298,0.0,0.8390585,0.5766972,-0.29597637,0.0,0.5600595,681.3553,807.8755,801.4286,801.4286,704.3223,0.0,0.0,0.09521484375,0.0509033203125,1.003173828125,2.64678955078125,-4.807586669921875,-1.772003173828125,913040.293040293,109227985.34798534,63120659.34065934,79.86944,1.0,1.0,1.0,1.0,1.0,25.0,,0 days 00:00:00.064000
2023-11-09 13:27:43.515,0.9966696,0.90224975,0.0,0.5626425,1.1368661,-0.3456213,0.0,0.07776274,1.0562171,0.048103098,0.0,0.44412607,0.8009656,0.08777298,0.0,0.8390585,0.5766972,-0.29597637,0.0,0.5600595,686.99634,811.50183,818.7546,811.9048,757.50916,0.0,0.0,0.09521484375,0.0509033203125,1.003173828125,2.64678955078125,-4.807586669921875,-1.772003173828125,913040.293040293,109227985.34798534,63120659.34065934,79.86944,1.0,1.0,1.0,1.0,1.0,25.0,,0 days 00:00:00.001000
2023-11-09 13:27:43.516,0.9966696,0.90224975,0.0,0.5626425,1.1368661,-0.3456213,0.0,0.07776274,1.0562171,0.048103098,0.0,0.44412607,0.8009656,0.08777298,0.0,0.8390585,0.5766972,-0.29597637,0.0,0.5600595,690.6227,810.293,805.05493,786.52014,773.6264,0.0,0.0,0.09521484375,0.0509033203125,1.003173828125,2.64678955078125,-4.807586669921875,-1.772003173828125,913040.293040293,109227985.34798534,63120659.34065934,79.86944,1.0,1.0,1.0,1.0,1.0,25.0,,0 days 00:00:00.001000
2023-11-09 13:27:43.516,0.9966696,0.90224975,0.0,0.5626425,1.1368661,-0.3456213,0.0,0.07776274,1.0562171,0.048103098,0.0,0.44412607,0.8009656,0.08777298,0.0,0.8390585,0.5766972,-0.29597637,0.0,0.5600595,677.72894,805.4579,794.9817,772.01465,784.5055,0.0,0.0,0.09521484375,0.0509033203125,1.003173828125,2.64678955078125,-4.807586669921875,-1.772003173828125,913040.293040293,109227985.34798534,63120659.34065934,79.86944,1.0,1.0,1.0,1.0,1.0,25.0,,0 days 00:00:00
2023-11-09 13:27:43.517,0.9966696,0.90224975,0.0,0.5626425,1.1368661,-0.3456213,0.0,0.07776274,1.0562171,0.048103098,0.0,0.44412607,0.8009656,0.08777298,0.0,0.8390585,0.5766972,-0.29597637,0.0,0.5600595,695.05493,807.0696,804.2491,800.2198,807.47253,0.0,0.0,0.09521484375,0.0509033203125,1.003173828125,2.64678955078125,-4.807586669921875,-1.772003173828125,913040.293040293,109227985.34798534,63120659.34065934,79.86944,1.0,1.0,1.0,1.0,1.0,25.0,,0 days 00:00:00.001000
2023-11-09 13:27:43.517,0.9966696,0.90224975,0.0,0.5626425,1.1368661,-0.3456213,0.0,0.07776274,1.0562171,0.048103098,0.0,0.44412607,0.8009656,0.08777298,0.0,0.8390585,0.5766972,-0.29597637,0.0,0.5600595,682.1612,804.65204,802.23444,810.293,813.5165,0.0,0.0,0.09521484375,0.0509033203125,1.003173828125,2.64678955078125,-4.807586669921875,-1.772003173828125,913040.293040293,109227985.34798534,63120659.34065934,79.86944,1.0,1.0,1.0,1.0,1.0,25.0,,0 days 00:00:00
2023-11-09 13:27:43.519,0.9966696,0.90224975,0.0,0.5626425,1.1368661,-0.3456213,0.0,0.07776274,1.0562171,0.048103098,0.0,0.44412607,0.8009656,0.08777298,0.0,0.8390585,0.5766972,-0.29597637,0.0,0.5600595,643.0769,800.6227,800.2198,803.0403,782.49084,0.0,0.0,0.09521484375,0.0509033203125,1.003173828125,2.64678955078125,-4.807586669921875,-1.772003173828125,913040.293040293,109227985.34798534,63120659.34065934,79.86944,1.0,1.0,1.0,1.0,1.0,25.0,,0 days 00:00:00.002000
2023-11-09 13:27:43.519,0.9966696,0.90224975,0.0,0.5626425,1.1368661,-0.3456213,0.0,0.07776274,1.0562171,0.048103098,0.0,0.44412607,0.8009656,0.08777298,0.0,0.8390585,0.5766972,-0.29597637,0.0,0.5600595,666.8498,790.14655,774.83514,812.3077,880.80585,0.0,0.0,0.09521484375,0.0509033203125,1.003173828125,2.64678955078125,-4.807586669921875,-1.772003173828125,913040.293040293,109227985.34798534,63120659.34065934,79.86944,1.0,1.0,1.0,1.0,1.0,25.0,,0 days 00:00:00
2023-11-09 13:27:43.520,0.9966696,0.90224975,0.0,0.5626425,1.1368661,-0.3456213,0.0,0.07776274,1.0562171,0.048103098,0.0,0.44412607,0.8009656,0.08777298,0.0,0.8390585,0.5766972,-0.29597637,0.0,0.5600595,668.46155,799.011,784.90845,807.8755,919.0842,0.0,0.0,0.09521484375,0.0509033203125,1.003173828125,2.64678955078125,-4.807586669921875,-1.772003173828125,913040.293040293,109227985.34798534,63120659.34065934,79.86944,1.0,1.0,1.0,1.0,1.0,25.0,,0 days 00:00:00.001000
2023-11-09 13:27:43.520,0.9966696,0.90224975,0.0,0.5626425,1.1368661,-0.3456213,0.0,0.07776274,1.0562171,0.048103098,0.0,0.44412607,0.8009656,0.08777298,0.0,0.8390585,0.5766972,-0.29597637,0.0,0.5600595,639.85345,810.696,816.7399,805.8608,744.21246,0.0,0.0,0.09521484375,0.0509033203125,1.003173828125,2.64678955078125,-4.807586669921875,-1.772003173828125,913040.293040293,109227985.34798534,63120659.34065934,79.86944,1.0,1.0,1.0,1.0,1.0,25.0,,0 days 00:00:00
2023-11-09 13:27:43.520,0.9966696,0.90224975,0.0,0.5626425,1.1368661,-0.3456213,0.0,0.07776274,1.0562171,0.048103098,0.0,0.44412607,0.8009656,0.08777298,0.0,0.8390585,0.5766972,-0.29597637,0.0,0.5600595,662.4176,811.9048,800.6227,814.7253,749.85345,0.0,0.0,0.09521484375,0.0509033203125,1.003173828125,2.64678955078125,-4.807586669921875,-1.772003173828125,913040.293040293,109227985.34798534,63120659.34065934,79.86944,1.0,1.0,1.0,1.0,1.0,25.0,,0 days 00:00:00
2023-11-09 13:27:43.521,0.9966696,0.90224975,0.0,0.5626425,1.1368661,-0.3456213,0.0,0.07776274,1.0562171,0.048103098,0.0,0.44412607,0.8009656,0.08777298,0.0,0.8390585,0.5766972,-0.29597637,0.0,0.5600595,651.13556,809.4872,791.3553,788.1319,863.8828,0.0,0.0,0.09521484375,0.0509033203125,1.003173828125,2.64678955078125,-4.807586669921875,-1.772003173828125,913040.293040293,109227985.34798534,63120659.34065934,79.86944,1.0,1.0,1.0,1.0,1.0,25.0,,0 days 00:00:00.001000
2023-11-09 13:27:43.562,0.9966696,0.90224975,0.0,0.5626425,1.1368661,-0.3456213,0.0,0.07776274,1.0562171,0.048103098,0.0,0.44412607,0.8009656,0.08777298,0.0,0.8390585,0.5766972,-0.29597637,0.0,0.5600595,621.31866,814.7253,815.5311,778.46155,792.5641,0.0,0.0,0.10693359375,0.05682373046875,0.99908447265625,1.457977294921875,-6.287994384765625,-2.40753173828125,914652.0146520146,109374652.014652,63264908.42490842,79.86944,1.0,1.0,1.0,1.0,1.0,25.0,,0 days 00:00:00.041000
2023-11-09 13:27:43.563,0.9966696,0.90224975,0.0,0.5626425,1.1368661,-0.3456213,0.0,0.07776274,1.0562171,0.048103098,0.0,0.44412607,0.8009656,0.08777298,0.0,0.8390585,0.5766972,-0.29597637,0.0,0.5600595,654.7619,816.337,816.7399,788.5348,689.011,0.0,0.0,0.10693359375,0.05682373046875,0.99908447265625,1.457977294921875,-6.287994384765625,-2.40753173828125,914652.0146520146,109374652.014652,63264908.42490842,79.86944,1.0,1.0,1.0,1.0,1.0,25.0,,0 days 00:00:00.001000
2023-11-09 13:27:43.564,0.9966696,0.90224975,0.0,0.5626425,1.1368661,-0.3456213,0.0,0.07776274,1.0562171,0.048103098,0.0,0.44412607,0.8009656,0.08777298,0.0,0.8390585,0.5766972,-0.29597637,0.0,0.5600595,654.7619,800.2198,790.54944,801.02563,749.0476,0.0,0.0,0.10693359375,0.05682373046875,0.99908447265625,1.457977294921875,-6.287994384765625,-2.40753173828125,914652.0146520146,109374652.014652,63264908.42490842,79.86944,1.0,1.0,1.0,1.0,1.0,25.0,,0 days 00:00:00.001000
2023-11-09 13:27:43.564,0.9966696,0.90224975,0.0,0.5626425,1.1368661,-0.3456213,0.0,0.07776274,1.0562171,0.048103098,0.0,0.44412607,0.8009656,0.08777298,0.0,0.8390585,0.5766972,-0.29597637,0.0,0.5600595,632.1978,798.60803,796.1905,793.36993,775.2381,0.0,0.0,0.10693359375,0.05682373046875,0.99908447265625,1.457977294921875,-6.287994384765625,-2.40753173828125,914652.0146520146,109374652.014652,63264908.42490842,79.86944,1.0,1.0,1.0,1.0,1.0,25.0,,0 days 00:00:00
2023-11-09 13:27:43.565,0.9966696,0.90224975,0.0,0.5626425,1.1368661,-0.3456213,0.0,0.07776274,1.0562171,0.048103098,0.0,0.44412607,0.8009656,0.08777298,0.0,0.8390585,0.5766972,-0.29597637,0.0,0.5600595,635.42126,807.0696,805.4579,776.4469,726.8865,0.0,0.0,0.10693359375,0.05682373046875,0.99908447265625,1.457977294921875,-6.287994384765625,-2.40753173828125,914652.0146520146,109374652.014652,63264908.42490842,79.86944,1.0,1.0,1.0,1.0,1.0,25.0,,0 days 00:00:00.001000
2023-11-09 13:27:43.565,0.9966696,0.90224975,0.0,0.5626425,1.1368661,-0.3456213,0.0,0.07776274,1.0562171,0.048103098,0.0,0.44412607,0.8009656,0.08777298,0.0,0.8390585,0.5766972,-0.29597637,0.0,0.5600595,658.3883,806.6667,796.5934,807.8755,721.6484,0.0,0.0,0.10693359375,0.05682373046875,0.99908447265625,1.457977294921875,-6.287994384765625,-2.40753173828125,914652.0146520146,109374652.014652,63264908.42490842,79.86944,1.0,1.0,1.0,1.0,1.0,25.0,,0 days 00:00:00
2023-11-09 13:27:43.565,0.9966696,0.90224975,0.0,0.5626425,1.1368661,-0.3456213,0.0,0.07776274,1.0562171,0.048103098,0.0,0.44412607,0.8009656,0.08777298,0.0,0.8390585,0.5766972,-0.29597637,0.0,0.5600595,659.19415,801.4286,785.7143,842.52747,866.7033,0.0,0.0,0.10693359375,0.05682373046875,0.99908447265625,1.457977294921875,-6.287994384765625,-2.40753173828125,914652.0146520146,109374652.014652,63264908.42490842,79.86944,1.0,1.0,1.0,1.0,1.0,25.0,,0 days 00:00:00
2023-11-09 13:27:43.566,0.9966696,0.90224975,0.0,0.5626425,1.1368661,-0.3456213,0.0,0.07776274,1.0562171,0.048103098,0.0,0.44412607,0.8009656,0.08777298,0.0,0.8390585,0.5766972,-0.29597637,0.0,0.5600595,617.28937,796.99634,767.98535,833.2601,1037.1428,0.0,0.0,0.10693359375,0.05682373046875,0.99908447265625,1.457977294921875,-6.287994384765625,-2.40753173828125,914652.0146520146,109374652.014652,63264908.42490842,79.86944,1.0,1.0,1.0,1.0,1.0,25.0,,0 days 00:00:00.001000
2023-11-09 13:27:43.566,0.9966696,0.90224975,0.0,0.5626425,1.1368661,-0.3456213,0.0,0.07776274,1.0562171,0.048103098,0.0,0.44412607,0.8009656,0.08777298,0.0,0.8390585,0.5766972,-0.29597637,0.0,0.5600595,600.3663,815.5311,813.5165,786.52014,827.619,0.0,0.0,0.10693359375,0.05682373046875,0.99908447265625,1.457977294921875,-6.287994384765625,-2.40753173828125,914652.0146520146,109374652.014652,63264908.42490842,79.86944,1.0,1.0,1.0,1.0,1.0,25.0,,0 days 00:00:00
2023-11-09 13:27:43.567,0.9966696,0.90224975,0.0,0.5626425,1.1368661,-0.3456213,0.0,0.07776274,1.0562171,0.048103098,0.0,0.44412607,0.8009656,0.08777298,0.0,0.8390585,0.5766972,-0.29597637,0.0,0.5600595,635.42126,815.9341,820.3663,782.49084,660.40295,0.0,0.0,0.10693359375,0.05682373046875,0.99908447265625,1.457977294921875,-6.287994384765625,-2.40753173828125,914652.0146520146,109374652.014652,63264908.42490842,79.86944,1.0,1.0,1.0,1.0,1.0,25.0,,0 days 00:00:00.001000
2023-11-09 13:27:43.567,0.9966696,0.90224975,0.0,0.5626425,1.1368661,-0.3456213,0.0,0.07776274,1.0562171,0.048103098,0.0,0.44412607,0.8009656,0.08777298,0.0,0.8390585,0.5766972,-0.29597637,0.0,0.5600595,630.18317,801.4286,781.685,810.293,792.5641,0.0,0.0,0.10693359375,0.05682373046875,0.99908447265625,1.457977294921875,-6.287994384765625,-2.40753173828125,914652.0146520146,109374652.014652,63264908.42490842,79.86944,1.0,1.0,1.0,1.0,1.0,25.0,,0 days 00:00:00
2023-11-09 13:27:43.568,0.9966696,0.90224975,0.0,0.5626425,1.1368661,-0.3456213,0.0,0.07776274,1.0562171,0.048103098,0.0,0.44412607,0.8009656,0.08777298,0.0,0.8390585,0.5766972,-0.29597637,0.0,0.5600595,596.337,803.8461,796.5934,800.2198,777.25275,0.0,0.0,0.10693359375,0.05682373046875,0.99908447265625,1.457977294921875,-6.287994384765625,-2.40753173828125,914652.0146520146,109374652.014652,63264908.42490842,79.86944,1.0,1.0,1.0,1.0,1.0,25.0,,0 days 00:00:00.001000
2023-11-09 13:27:43.594,0.9966696,0.90224975,0.0,0.5626425,1.1368661,-0.3456213,0.0,0.07776274,1.0562171,0.048103098,0.0,0.44412607,0.8009656,0.08777298,0.0,0.8390585,0.5766972,-0.29597637,0.0,0.5600595,602.381,813.1135,816.7399,797.3993,716.8132,0.0,0.0,0.11456298828125,0.052490234375,1.00048828125,1.846771240234375,-5.06927490234375,-2.130889892578125,914652.0146520146,109374652.014652,63264908.42490842,79.86944,1.0,1.0,1.0,1.0,1.0,25.0,,0 days 00:00:00.026000
2023-11-09 13:27:43.595,0.9966696,0.90224975,0.0,0.5626425,1.1368661,-0.3456213,0.0,0.07776274,1.0562171,0.048103098,0.0,0.44412607,0.8009656,0.08777298,0.0,0.8390585,0.5766972,-0.29597637,0.0,0.5600595,589.89014,816.337,808.2784,810.293,762.3443,0.0,0.0,0.11456298828125,0.052490234375,1.00048828125,1.846771240234375,-5.06927490234375,-2.130889892578125,914652.0146520146,109374652.014652,63264908.42490842,79.86944,1.0,1.0,1.0,1.0,1.0,25.0,,0 days 00:00:00.001000
2023-11-09 13:27:43.595,0.9966696,0.90224975,0.0,0.5626425,1.1368661,-0.3456213,0.0,0.07776274,1.0562171,0.048103098,0.0,0.44412607,0.8009656,0.08777298,0.0,0.8390585,0.5766972,-0.29597637,0.0,0.5600595,594.7253,809.4872,786.9231,805.4579,863.0769,0.0,0.0,0.11456298828125,0.052490234375,1.00048828125,1.846771240234375,-5.06927490234375,-2.130889892578125,914652.0146520146,109374652.014652,63264908.42490842,79.86944,1.0,1.0,1.0,1.0,1.0,25.0,,0 days 00:00:00
2023-11-09 13:27:43.596,0.9966696,0.90224975,0.0,0.5626425,1.1368661,-0.3456213,0.0,0.07776274,1.0562171,0.048103098,0.0,0.44412607,0.8009656,0.08777298,0.0,0.8390585,0.5766972,-0.29597637,0.0,0.5600595,578.20514,811.50183,801.02563,784.5055,883.6264,0.0,0.0,0.11456298828125,0.052490234375,1.00048828125,1.846771240234375,-5.06927490234375,-2.130889892578125,914652.0146520146,109374652.014652,63264908.42490842,79.86944,1.0,1.0,1.0,1.0,1.0,25.0,,0 days 00:00:00.001000
2023-11-09 13:27:43.596,0.9966696,0.90224975,0.0,0.5626425,1.1368661,-0.3456213,0.0,0.07776274,1.0562171,0.048103098,0.0,0.44412607,0.8009656,0.08777298,0.0,0.8390585,0.5766972,-0.29597637,0.0,0.5600595,543.95605,807.47253,814.3223,776.8498,753.0769,0.0,0.0,0.11456298828125,0.052490234375,1.00048828125,1.846771240234375,-5.06927490234375,-2.130889892578125,914652.0146520146,109374652.014652,63264908.42490842,79.86944,1.0,1.0,1.0,1.0,1.0,25.0,,0 days 00:00:00
2023-11-09 13:27:43.597,0.9966696,0.90224975,0.0,0.5626425,1.1368661,-0.3456213,0.0,0.07776274,1.0562171,0.048103098,0.0,0.44412607,0.8009656,0.08777298,0.0,0.8390585,0.5766972,-0.29597637,0.0,0.5600595,537.50916,801.8315,802.23444,800.6227,772.4176,0.0,0.0,0.11456298828125,0.052490234375,1.00048828125,1.846771240234375,-5.06927490234375,-2.130889892578125,914652.0146520146,109374652.014652,63264908.42490842,79.86944,1.0,1.0,1.0,1.0,1.0,25.0,,0 days 00:00:00.001000
2023-11-09 13:27:43.597,0.9966696,0.90224975,0.0,0.5626425,1.1368661,-0.3456213,0.0,0.07776274,1.0562171,0.048103098,0.0,0.44412607,0.8009656,0.08777298,0.0,0.8390585,0.5766972,-0.29597637,0.0,0.5600595,522.1978,791.75824,785.31134,832.4542,1056.8865,0.0,0.0,0.11456298828125,0.052490234375,1.00048828125,1.846771240234375,-5.06927490234375,-2.130889892578125,914652.0146520146,109374652.014652,63264908.42490842,79.86944,1.0,1.0,1.0,1.0,1.0,25.0,,0 days 00:00:00
2023-11-09 13:27:43.597,0.9966696,0.90224975,0.0,0.5626425,1.1368661,-0.3456213,0.0,0.07776274,1.0562171,0.048103098,0.0,0.44412607,0.8009656,0.08777298,0.0,0.8390585,0.5766972,-0.29597637,0.0,0.5600595,525.82416,801.8315,801.8315,822.7839,1017.8022,0.0,0.0,0.11456298828125,0.052490234375,1.00048828125,1.846771240234375,-5.06927490234375,-2.130889892578125,914652.0146520146,109374652.014652,63264908.42490842,79.86944,1.0,1.0,1.0,1.0,1.0,25.0,,0 days 00:00:00
2023-11-09 13:27:43.599,0.9966696,0.90224975,0.0,0.5626425,1.1368661,-0.3456213,0.0,0.07776274,1.0562171,0.048103098,0.0,0.44412607,0.8009656,0.08777298,0.0,0.8390585,0.5766972,-0.29597637,0.0,0.5600595,514.5421,816.7399,833.2601,774.83514,729.304,0.0,0.0,0.11456298828125,0.052490234375,1.00048828125,1.846771240234375,-5.06927490234375,-2.130889892578125,914652.0146520146,109374652.014652,63264908.42490842,79.86944,1.0,1.0,1.0,1.0,1.0,25.0,,0 days 00:00:00.002000
2023-11-09 13:27:43.600,0.9966696,0.90224975,0.0,0.5626425,1.1368661,-0.3456213,0.0,0.07776274,1.0562171,0.048103098,0.0,0.44412607,0.8009656,0.08777298,0.0,0.8390585,0.5766972,-0.29597637,0.0,0.5600595,488.35165,809.0842,811.0989,796.1905,751.4652,0.0,0.0,0.11456298828125,0.052490234375,1.00048828125,1.846771240234375,-5.06927490234375,-2.130889892578125,914652.0146520146,109374652.014652,63264908.42490842,79.86944,1.0,1.0,1.0,1.0,1.0,25.0,,0 days 00:00:00.001000
2023-11-09 13:27:43.600,0.9966696,0.90224975,0.0,0.5626425,1.1368661,-0.3456213,0.0,0.07776274,1.0562171,0.048103098,0.0,0.44412607,0.8009656,0.08777298,0.0,0.8390585,0.5766972,-0.29597637,0.0,0.5600595,502.45422,811.0989,802.6374,829.2308,769.19415,0.0,0.0,0.11456298828125,0.052490234375,1.00048828125,1.846771240234375,-5.06927490234375,-2.130889892578125,914652.0146520146,109374652.014652,63264908.42490842,79.86944,1.0,1.0,1.0,1.0,1.0,25.0,,0 days 00:00:00
2023-11-09 13:27:43.600,0.9966696,0.90224975,0.0,0.5626425,1.1368661,-0.3456213,0.0,0.07776274,1.0562171,0.048103098,0.0,0.44412607,0.8009656,0.08777298,0.0,0.8390585,0.5766972,-0.29597637,0.0,0.5600595,511.3187,815.12823,817.9487,805.8608,739.3773,0.0,0.0,0.11456298828125,0.052490234375,1.00048828125,1.846771240234375,-5.06927490234375,-2.130889892578125,914652.0146520146,109374652.014652,63264908.42490842,79.86944,1.0,1.0,1.0,1.0,1.0,25.0,,0 days 00:00:00
2023-11-09 13:27:43.663,0.9966696,0.90224975,0.0,0.5626425,1.1368661,-0.3456213,0.0,0.07776274,1.0562171,0.048103098,0.0,0.44412607,0.8009656,0.08777298,0.0,0.8390585,0.5766972,-0.29597637,0.0,0.5600595,493.58975,813.1135,814.3223,797.8022,686.5934,0.0,0.0,0.11456298828125,0.052490234375,1.00048828125,1.846771240234375,-5.06927490234375,-2.130889892578125,913040.293040293,109166739.92673992,63172234.43223443,79.86944,1.0,1.0,1.0,1.0,1.0,25.0,,0 days 00:00:00.063000
2023-11-09 13:27:43.664,0.9966696,0.90224975,0.0,0.5626425,1.1368661,-0.3456213,0.0,0.07776274,1.0562171,0.048103098,0.0,0.44412607,0.8009656,0.08777298,0.0,0.8390585,0.5766972,-0.29597637,0.0,0.5600595,479.48718,805.8608,798.60803,788.93774,701.50183,0.0,0.0,0.11456298828125,0.052490234375,1.00048828125,1.846771240234375,-5.06927490234375,-2.130889892578125,913040.293040293,109166739.92673992,63172234.43223443,79.86944,1.0,1.0,1.0,1.0,1.0,25.0,,0 days 00:00:00.001000
2023-11-09 13:27:43.665,0.9966696,0.90224975,0.0,0.5626425,1.1368661,-0.3456213,0.0,0.07776274,1.0562171,0.048103098,0.0,0.44412607,0.8009656,0.08777298,0.0,0.8390585,0.5766972,-0.29597637,0.0,0.5600595,482.71063,803.8461,795.38464,792.96704,737.3626,0.0,0.0,0.11456298828125,0.052490234375,1.00048828125,1.846771240234375,-5.06927490234375,-2.130889892578125,913040.293040293,109166739.92673992,63172234.43223443,79.86944,1.0,1.0,1.0,1.0,1.0,25.0,,0 days 00:00:00.001000
2023-11-09 13:27:43.665,0.9966696,0.90224975,0.0,0.5626425,1.1368661,-0.3456213,0.0,0.07776274,1.0562171,0.048103098,0.0,0.44412607,0.8009656,0.08777298,0.0,0.8390585,0.5766972,-0.29597637,0.0,0.5600595,488.35165,809.89014,795.38464,807.0696,752.674,0.0,0.0,0.11456298828125,0.052490234375,1.00048828125,1.846771240234375,-5.06927490234375,-2.130889892578125,913040.293040293,109166739.92673992,63172234.43223443,79.86944,1.0,1.0,1.0,1.0,1.0,25.0,,0 days 00:00:00
2023-11-09 13:27:43.666,0.9966696,0.90224975,0.0,0.5626425,1.1368661,-0.3456213,0.0,0.07776274,1.0562171,0.048103098,0.0,0.44412607,0.8009656,0.08777298,0.0,0.8390585,0.5766972,-0.29597637,0.0,0.5600595,478.27838,813.1135,807.8755,809.89014,716.4103,0.0,0.0,0.11456298828125,0.052490234375,1.00048828125,1.846771240234375,-5.06927490234375,-2.130889892578125,913040.293040293,109166739.92673992,63172234.43223443,79.86944,1.0,1.0,1.0,1.0,1.0,25.0,,0 days 00:00:00.001000
2023-11-09 13:27:43.666,0.9966696,0.90224975,0.0,0.5626425,1.1368661,-0.3456213,0.0,0.07776274,1.0562171,0.048103098,0.0,0.44412607,0.8009656,0.08777298,0.0,0.8390585,0.5766972,-0.29597637,0.0,0.5600595,473.44324,801.02563,801.4286,816.337,795.78754,0.0,0.0,0.11456298828125,0.052490234375,1.00048828125,1.846771240234375,-5.06927490234375,-2.130889892578125,913040.293040293,109166739.92673992,63172234.43223443,79.86944,1.0,1.0,1.0,1.0,1.0,25.0,,0 days 00:00:00
2023-11-09 13:27:43.667,0.9966696,0.90224975,0.0,0.5626425,1.1368661,-0.3456213,0.0,0.07776274,1.0562171,0.048103098,0.0,0.44412607,0.8009656,0.08777298,0.0,0.8390585,0.5766972,-0.29597637,0.0,0.5600595,470.2198,793.7729,775.64105,827.2161,1095.5677,0.0,0.0,0.11456298828125,0.052490234375,1.00048828125,1.846771240234375,-5.06927490234375,-2.130889892578125,913040.293040293,109166739.92673992,63172234.43223443,79.86944,1.0,1.0,1.0,1.0,1.0,25.0,,0 days 00:00:00.001000
2023-11-09 13:27:43.667,0.9966696,0.90224975,0.0,0.5626425,1.1368661,-0.3456213,0.0,0.07776274,1.0562171,0.048103098,0.0,0.44412607,0.8009656,0.08777298,0.0,0.8390585,0.5766972,-0.29597637,0.0,0.5600595,471.42856,808.68134,804.65204,829.6337,961.79486,0.0,0.0,0.11456298828125,0.052490234375,1.00048828125,1.846771240234375,-5.06927490234375,-2.130889892578125,913040.293040293,109166739.92673992,63172234.43223443,79.86944,1.0,1.0,1.0,1.0,1.0,25.0,,0 days 00:00:00
2023-11-09 13:27:43.668,0.9966696,0.90224975,0.0,0.5626425,1.1368661,-0.3456213,0.0,0.07776274,1.0562171,0.048103098,0.0,0.44412607,0.8009656,0.08777298,0.0,0.8390585,0.5766972,-0.29597637,0.0,0.5600595,473.04028,813.91943,822.7839,803.8461,723.2601,0.0,0.0,0.11456298828125,0.052490234375,1.00048828125,1.846771240234375,-5.06927490234375,-2.130889892578125,913040.293040293,109166739.92673992,63172234.43223443,79.86944,1.0,1.0,1.0,1.0,1.0,25.0,,0 days 00:00:00.001000
2023-11-09 13:27:43.668,0.9966696,0.90224975,0.0,0.5626425,1.1368661,-0.3456213,0.0,0.07776274,1.0562171,0.048103098,0.0,0.44412607,0.8009656,0.08777298,0.0,0.8390585,0.5766972,-0.29597637,0.0,0.5600595,467.8022,801.02563,794.57874,794.57874,845.34796,0.0,0.0,0.11456298828125,0.052490234375,1.00048828125,1.846771240234375,-5.06927490234375,-2.130889892578125,913040.293040293,109166739.92673992,63172234.43223443,79.86944,1.0,1.0,1.0,1.0,1.0,25.0,,0 days 00:00:00
2023-11-09 13:27:43.669,0.9966696,0.90224975,0.0,0.5626425,1.1368661,-0.3456213,0.0,0.07776274,1.0562171,0.048103098,0.0,0.44412607,0.8009656,0.08777298,0.0,0.8390585,0.5766972,-0.29597637,0.0,0.5600595,445.64102,800.2198,795.78754,814.3223,912.6374,0.0,0.0,0.11456298828125,0.052490234375,1.00048828125,1.846771240234375,-5.06927490234375,-2.130889892578125,913040.293040293,109166739.92673992,63172234.43223443,79.86944,1.0,1.0,1.0,1.0,1.0,25.0,,0 days 00:00:00.001000
2023-11-09 13:27:43.669,0.9966696,0.90224975,0.0,0.5626425,1.1368661,-0.3456213,0.0,0.07776274,1.0562171,0.048103098,0.0,0.44412607,0.8009656,0.08777298,0.0,0.8390585,0.5766972,-0.29597637,0.0,0.5600595,419.45056,813.1135,820.7692,818.7546,758.71796,0.0,0.0,0.11456298828125,0.052490234375,1.00048828125,1.846771240234375,-5.06927490234375,-2.130889892578125,913040.293040293,109166739.92673992,63172234.43223443,79.86944,1.0,1.0,1.0,1.0,1.0,25.0,,0 days 00:00:00
2023-11-09 13:27:43.691,0.9966696,0.90224975,0.0,0.5626425,1.1368661,-0.3456213,0.0,0.07776274,1.0562171,0.048103098,0.0,0.44412607,0.8009656,0.08777298,0.0,0.8390585,0.5766972,-0.29597637,0.0,0.5600595,421.4652,803.0403,807.8755,824.3956,706.337,0.0,0.0,0.1038818359375,0.03857421875,0.9892578125,2.444915771484375,-3.96270751953125,-2.310333251953125,913040.293040293,109166739.92673992,63172234.43223443,79.86944,1.0,1.0,1.0,1.0,1.0,25.0,,0 days 00:00:00.022000
2023-11-09 13:27:43.691,0.9966696,0.90224975,0.0,0.5626425,1.1368661,-0.3456213,0.0,0.07776274,1.0562171,0.048103098,0.0,0.44412607,0.8009656,0.08777298,0.0,0.8390585,0.5766972,-0.29597637,0.0,0.5600595,412.1978,802.23444,804.65204,795.78754,710.3663,0.0,0.0,0.1038818359375,0.03857421875,0.9892578125,2.444915771484375,-3.96270751953125,-2.310333251953125,913040.293040293,109166739.92673992,63172234.43223443,79.86944,1.0,1.0,1.0,1.0,1.0,25.0,,0 days 00:00:00
2023-11-09 13:27:43.692,0.9966696,0.90224975,0.0,0.5626425,1.1368661,-0.3456213,0.0,0.07776274,1.0562171,0.048103098,0.0,0.44412607,0.8009656,0.08777298,0.0,0.8390585,0.5766972,-0.29597637,0.0,0.5600595,398.09525,806.6667,811.50183,787.326,696.6667,0.0,0.0,0.1038818359375,0.03857421875,0.9892578125,2.444915771484375,-3.96270751953125,-2.310333251953125,913040.293040293,109166739.92673992,63172234.43223443,79.86944,1.0,1.0,1.0,1.0,1.0,25.0,,0 days 00:00:00.001000
2023-11-09 13:27:43.692,0.9966696,0.90224975,0.0,0.5626425,1.1368661,-0.3456213,0.0,0.07776274,1.0562171,0.048103098,0.0,0.44412607,0.8009656,0.08777298,0.0,0.8390585,0.5766972,-0.29597637,0.0,0.5600595,421.06226,805.05493,821.978,831.2454,694.65204,0.0,0.0,0.1038818359375,0.03857421875,0.9892578125,2.444915771484375,-3.96270751953125,-2.310333251953125,913040.293040293,109166739.92673992,63172234.43223443,79.86944,1.0,1.0,1.0,1.0,1.0,25.0,,0 days 00:00:00
2023-11-09 13:27:43.692,0.9966696,0.90224975,0.0,0.5626425,1.1368661,-0.3456213,0.0,0.07776274,1.0562171,0.048103098,0.0,0.44412607,0.8009656,0.08777298,0.0,0.8390585,0.5766972,-0.29597637,0.0,0.5600595,440.0,801.8315,818.7546,836.8865,721.2454,0.0,0.0,0.1038818359375,0.03857421875,0.9892578125,2.444915771484375,-3.96270751953125,-2.310333251953125,913040.293040293,109166739.92673992,63172234.43223443,79.86944,1.0,1.0,1.0,1.0,1.0,25.0,,0 days 00:00:00
2023-11-09 13:27:43.692,0.9966696,0.90224975,0.0,0.5626425,1.1368661,-0.3456213,0.0,0.07776274,1.0562171,0.048103098,0.0,0.44412607,0.8009656,0.08777298,0.0,0.8390585,0.5766972,-0.29597637,0.0,0.5600595,446.04395,804.2491,796.99634,814.7253,806.6667,0.0,0.0,0.1038818359375,0.03857421875,0.9892578125,2.444915771484375,-3.96270751953125,-2.310333251953125,913040.293040293,109166739.92673992,63172234.43223443,79.86944,1.0,1.0,1.0,1.0,1.0,25.0,,0 days 00:00:00
2023-11-09 13:27:43.693,0.9966696,0.90224975,0.0,0.5626425,1.1368661,-0.3456213,0.0,0.07776274,1.0562171,0.048103098,0.0,0.44412607,0.8009656,0.08777298,0.0,0.8390585,0.5766972,-0.29597637,0.0,0.5600595,428.71796,805.05493,796.99634,795.38464,855.82416,0.0,0.0,0.1038818359375,0.03857421875,0.9892578125,2.444915771484375,-3.96270751953125,-2.310333251953125,913040.293040293,109166739.92673992,63172234.43223443,79.86944,1.0,1.0,1.0,1.0,1.0,25.0,,0 days 00:00:00.001000
2023-11-09 13:27:43.693,0.9966696,0.90224975,0.0,0.5626425,1.1368661,-0.3456213,0.0,0.07776274,1.0562171,0.048103098,0.0,0.44412607,0.8009656,0.08777298,0.0,0.8390585,0.5766972,-0.29597637,0.0,0.5600595,424.2857,806.6667,806.6667,809.4872,835.2747,0.0,0.0,0.1038818359375,0.03857421875,0.9892578125,2.444915771484375,-3.96270751953125,-2.310333251953125,913040.293040293,109166739.92673992,63172234.43223443,79.86944,1.0,1.0,1.0,1.0,1.0,25.0,,0 days 00:00:00
2023-11-09 13:27:43.693,0.9966696,0.90224975,0.0,0.5626425,1.1368661,-0.3456213,0.0,0.07776274,1.0562171,0.048103098,0.0,0.44412607,0.8009656,0.08777298,0.0,0.8390585,0.5766972,-0.29597637,0.0,0.5600595,436.37363,807.8755,809.4872,821.978,806.26373,0.0,0.0,0.1038818359375,0.03857421875,0.9892578125,2.444915771484375,-3.96270751953125,-2.310333251953125,913040.293040293,109166739.92673992,63172234.43223443,79.86944,1.0,1.0,1.0,1.0,1.0,25.0,,0 days 00:00:00
2023-11-09 13:27:43.693,0.9966696,0.90224975,0.0,0.5626425,1.1368661,-0.3456213,0.0,0.07776274,1.0562171,0.048103098,0.0,0.44412607,0.8009656,0.08777298,0.0,0.8390585,0.5766972,-0.29597637,0.0,0.5600595,442.01465,792.1612,773.22345,822.7839,968.6447,0.0,0.0,0.1038818359375,0.03857421875,0.9892578125,2.444915771484375,-3.96270751953125,-2.310333251953125,913040.293040293,109166739.92673992,63172234.43223443,79.86944,1.0,1.0,1.0,1.0,1.0,25.0,,0 days 00:00:00
2023-11-09 13:27:43.694,0.9966696,0.90224975,0.0,0.5626425,1.1368661,-0.3456213,0.0,0.07776274,1.0562171,0.048103098,0.0,0.44412607,0.8009656,0.08777298,0.0,0.8390585,0.5766972,-0.29597637,0.0,0.5600595,451.28204,801.02563,784.10254,807.47253,960.989,0.0,0.0,0.1038818359375,0.03857421875,0.9892578125,2.444915771484375,-3.96270751953125,-2.310333251953125,913040.293040293,109166739.92673992,63172234.43223443,79.86944,1.0,1.0,1.0,1.0,1.0,25.0,,0 days 00:00:00.001000
2023-11-09 13:27:43.695,0.9966696,0.90224975,0.0,0.5626425,1.1368661,-0.3456213,0.0,0.07776274,1.0562171,0.048103098,0.0,0.44412607,0.8009656,0.08777298,0.0,0.8390585,0.5766972,-0.29597637,0.0,0.5600595,446.84982,811.0989,830.84247,790.14655,752.674,0.0,0.0,0.1038818359375,0.03857421875,0.9892578125,2.444915771484375,-3.96270751953125,-2.310333251953125,913040.293040293,109166739.92673992,63172234.43223443,79.86944,1.0,1.0,1.0,1.0,1.0,25.0,,0 days 00:00:00.001000
2023-11-09 13:27:43.762,0.9966696,0.90224975,0.0,0.5626425,1.1368661,-0.3456213,0.0,0.07776274,1.0562171,0.048103098,0.0,0.44412607,0.8009656,0.08777298,0.0,0.8390585,0.5766972,-0.29597637,0.0,0.5600595,452.89377,799.81683,806.6667,824.3956,796.5934,0.0,0.0,0.1060791015625,0.0328369140625,0.99505615234375,2.03369140625,-4.523468017578125,-0.919647216796875,917069.597069597,108962051.28205128,63020732.6007326,79.86944,1.0,1.0,1.0,1.0,1.0,25.0,,0 days 00:00:00.067000
2023-11-09 13:27:43.763,0.9966696,0.90224975,0.0,0.5626425,1.1368661,-0.3456213,0.0,0.07776274,1.0562171,0.048103098,0.0,0.44412607,0.8009656,0.08777298,0.0,0.8390585,0.5766972,-0.29597637,0.0,0.5600595,462.16116,802.6374,800.2198,832.0513,829.2308,0.0,0.0,0.1060791015625,0.0328369140625,0.99505615234375,2.03369140625,-4.523468017578125,-0.919647216796875,917069.597069597,108962051.28205128,63020732.6007326,79.86944,1.0,1.0,1.0,1.0,1.0,25.0,,0 days 00:00:00.001000
2023-11-09 13:27:43.764,0.9966696,0.90224975,0.0,0.5626425,1.1368661,-0.3456213,0.0,0.07776274,1.0562171,0.048103098,0.0,0.44412607,0.8009656,0.08777298,0.0,0.8390585,0.5766972,-0.29597637,0.0,0.5600595,456.92307,809.0842,811.9048,804.65204,796.99634,0.0,0.0,0.1060791015625,0.0328369140625,0.99505615234375,2.03369140625,-4.523468017578125,-0.919647216796875,917069.597069597,108962051.28205128,63020732.6007326,79.86944,1.0,1.0,1.0,1.0,1.0,25.0,,0 days 00:00:00.001000
2023-11-09 13:27:43.764,0.9966696,0.90224975,0.0,0.5626425,1.1368661,-0.3456213,0.0,0.07776274,1.0562171,0.048103098,0.0,0.44412607,0.8009656,0.08777298,0.0,0.8390585,0.5766972,-0.29597637,0.0,0.5600595,470.2198,805.4579,801.02563,826.0073,722.8571,0.0,0.0,0.1060791015625,0.0328369140625,0.99505615234375,2.03369140625,-4.523468017578125,-0.919647216796875,917069.597069597,108962051.28205128,63020732.6007326,79.86944,1.0,1.0,1.0,1.0,1.0,25.0,,0 days 00:00:00
2023-11-09 13:27:43.765,0.9966696,0.90224975,0.0,0.5626425,1.1368661,-0.3456213,0.0,0.07776274,1.0562171,0.048103098,0.0,0.44412607,0.8009656,0.08777298,0.0,0.8390585,0.5766972,-0.29597637,0.0,0.5600595,491.97803,797.3993,783.69965,828.022,852.1978,0.0,0.0,0.1060791015625,0.0328369140625,0.99505615234375,2.03369140625,-4.523468017578125,-0.919647216796875,917069.597069597,108962051.28205128,63020732.6007326,79.86944,1.0,1.0,1.0,1.0,1.0,25.0,,0 days 00:00:00.001000
2023-11-09 13:27:43.765,0.9966696,0.90224975,0.0,0.5626425,1.1368661,-0.3456213,0.0,0.07776274,1.0562171,0.048103098,0.0,0.44412607,0.8009656,0.08777298,0.0,0.8390585,0.5766972,-0.29597637,0.0,0.5600595,493.58975,792.96704,779.2674,808.2784,957.3626,0.0,0.0,0.1060791015625,0.0328369140625,0.99505615234375,2.03369140625,-4.523468017578125,-0.919647216796875,917069.597069597,108962051.28205128,63020732.6007326,79.86944,1.0,1.0,1.0,1.0,1.0,25.0,,0 days 00:00:00
2023-11-09 13:27:43.766,0.9966696,0.90224975,0.0,0.5626425,1.1368661,-0.3456213,0.0,0.07776274,1.0562171,0.048103098,0.0,0.44412607,0.8009656,0.08777298,0.0,0.8390585,0.5766972,-0.29597637,0.0,0.5600595,510.1099,799.81683,800.2198,805.8608,828.022,0.0,0.0,0.1060791015625,0.0328369140625,0.99505615234375,2.03369140625,-4.523468017578125,-0.919647216796875,917069.597069597,108962051.28205128,63020732.6007326,79.86944,1.0,1.0,1.0,1.0,1.0,25.0,,0 days 00:00:00.001000
2023-11-09 13:27:43.766,0.9966696,0.90224975,0.0,0.5626425,1.1368661,-0.3456213,0.0,0.07776274,1.0562171,0.048103098,0.0,0.44412607,0.8009656,0.08777298,0.0,0.8390585,0.5766972,-0.29597637,0.0,0.5600595,517.76556,806.6667,803.44324,807.47253,751.06226,0.0,0.0,0.1060791015625,0.0328369140625,0.99505615234375,2.03369140625,-4.523468017578125,-0.919647216796875,917069.597069597,108962051.28205128,63020732.6007326,79.86944,1.0,1.0,1.0,1.0,1.0,25.0,,0 days 00:00:00
2023-11-09 13:27:43.767,0.9966696,0.90224975,0.0,0.5626425,1.1368661,-0.3456213,0.0,0.07776274,1.0562171,0.048103098,0.0,0.44412607,0.8009656,0.08777298,0.0,0.8390585,0.5766972,-0.29597637,0.0,0.5600595,531.8681,799.81683,785.7143,856.63007,824.7985,0.0,0.0,0.1060791015625,0.0328369140625,0.99505615234375,2.03369140625,-4.523468017578125,-0.919647216796875,917069.597069597,108962051.28205128,63020732.6007326,79.86944,1.0,1.0,1.0,1.0,1.0,25.0,,0 days 00:00:00.001000
2023-11-09 13:27:43.767,0.9966696,0.90224975,0.0,0.5626425,1.1368661,-0.3456213,0.0,0.07776274,1.0562171,0.048103098,0.0,0.44412607,0.8009656,0.08777298,0.0,0.8390585,0.5766972,-0.29597637,0.0,0.5600595,550.40295,788.1319,761.13556,888.0586,1137.8755,0.0,0.0,0.1060791015625,0.0328369140625,0.99505615234375,2.03369140625,-4.523468017578125,-0.919647216796875,917069.597069597,108962051.28205128,63020732.6007326,79.86944,1.0,1.0,1.0,1.0,1.0,25.0,,0 days 00:00:00
2023-11-09 13:27:43.768,0.9966696,0.90224975,0.0,0.5626425,1.1368661,-0.3456213,0.0,0.07776274,1.0562171,0.048103098,0.0,0.44412607,0.8009656,0.08777298,0.0,0.8390585,0.5766972,-0.29597637,0.0,0.5600595,533.47986,807.47253,801.8315,828.8278,1039.1575,0.0,0.0,0.1060791015625,0.0328369140625,0.99505615234375,2.03369140625,-4.523468017578125,-0.919647216796875,917069.597069597,108962051.28205128,63020732.6007326,79.86944,1.0,1.0,1.0,1.0,1.0,25.0,,0 days 00:00:00.001000
2023-11-09 13:27:43.768,0.9966696,0.90224975,0.0,0.5626425,1.1368661,-0.3456213,0.0,0.07776274,1.0562171,0.048103098,0.0,0.44412607,0.8009656,0.08777298,0.0,0.8390585,0.5766972,-0.29597637,0.0,0.5600595,549.19415,815.5311,837.28937,801.4286,641.06226,0.0,0.0,0.1060791015625,0.0328369140625,0.99505615234375,2.03369140625,-4.523468017578125,-0.919647216796875,917069.597069597,108962051.28205128,63020732.6007326,79.86944,1.0,1.0,1.0,1.0,1.0,25.0,,0 days 00:00:00
2023-11-09 13:27:43.790,0.9966696,0.90224975,0.0,0.5626425,1.1368661,-0.3456213,0.0,0.07776274,1.0562171,0.048103098,0.0,0.44412607,0.8009656,0.08777298,0.0,0.8390585,0.5766972,-0.29597637,0.0,0.5600595,583.0403,803.44324,813.91943,818.3516,621.7216,0.0,0.0,0.08642578125,0.0355224609375,0.98809814453125,2.37762451171875,-4.358978271484375,-1.68975830078125,917069.597069597,108962051.28205128,63020732.6007326,79.86944,1.0,1.0,1.0,1.0,1.0,25.0,,0 days 00:00:00.022000
2023-11-09 13:27:43.791,0.9966696,0.90224975,0.0,0.5626425,1.1368661,-0.3456213,0.0,0.07776274,1.0562171,0.048103098,0.0,0.44412607,0.8009656,0.08777298,0.0,0.8390585,0.5766972,-0.29597637,0.0,0.5600595,625.7509,814.3223,825.2015,838.0952,688.20514,0.0,0.0,0.08642578125,0.0355224609375,0.98809814453125,2.37762451171875,-4.358978271484375,-1.68975830078125,917069.597069597,108962051.28205128,63020732.6007326,79.86944,1.0,1.0,1.0,1.0,1.0,25.0,,0 days 00:00:00.001000
2023-11-09 13:27:43.791,0.9966696,0.90224975,0.0,0.5626425,1.1368661,-0.3456213,0.0,0.07776274,1.0562171,0.048103098,0.0,0.44412607,0.8009656,0.08777298,0.0,0.8390585,0.5766972,-0.29597637,0.0,0.5600595,639.0476,817.5458,823.9927,835.6777,648.315,0.0,0.0,0.08642578125,0.0355224609375,0.98809814453125,2.37762451171875,-4.358978271484375,-1.68975830078125,917069.597069597,108962051.28205128,63020732.6007326,79.86944,1.0,1.0,1.0,1.0,1.0,25.0,,0 days 00:00:00
2023-11-09 13:27:43.791,0.9966696,0.90224975,0.0,0.5626425,1.1368661,-0.3456213,0.0,0.07776274,1.0562171,0.048103098,0.0,0.44412607,0.8009656,0.08777298,0.0,0.8390585,0.5766972,-0.29597637,0.0,0.5600595,627.76556,807.47253,801.4286,793.7729,610.84247,0.0,0.0,0.08642578125,0.0355224609375,0.98809814453125,2.37762451171875,-4.358978271484375,-1.68975830078125,917069.597069597,108962051.28205128,63020732.6007326,79.86944,1.0,1.0,1.0,1.0,1.0,25.0,,0 days 00:00:00
2023-11-09 13:27:43.791,0.9966696,0.90224975,0.0,0.5626425,1.1368661,-0.3456213,0.0,0.07776274,1.0562171,0.048103098,0.0,0.44412607,0.8009656,0.08777298,0.0,0.8390585,0.5766972,-0.29597637,0.0,0.5600595,668.86444,802.6374,803.44324,796.99634,699.0842,0.0,0.0,0.08642578125,0.0355224609375,0.98809814453125,2.37762451171875,-4.358978271484375,-1.68975830078125,917069.597069597,108962051.28205128,63020732.6007326,79.86944,1.0,1.0,1.0,1.0,1.0,25.0,,0 days 00:00:00
2023-11-09 13:27:43.792,0.9966696,0.90224975,0.0,0.5626425,1.1368661,-0.3456213,0.0,0.07776274,1.0562171,0.048103098,0.0,0.44412607,0.8009656,0.08777298,0.0,0.8390585,0.5766972,-0.29597637,0.0,0.5600595,662.01465,797.8022,798.60803,829.2308,795.78754,0.0,0.0,0.08642578125,0.0355224609375,0.98809814453125,2.37762451171875,-4.358978271484375,-1.68975830078125,917069.597069597,108962051.28205128,63020732.6007326,79.86944,1.0,1.0,1.0,1.0,1.0,25.0,,0 days 00:00:00.001000
2023-11-09 13:27:43.792,0.9966696,0.90224975,0.0,0.5626425,1.1368661,-0.3456213,0.0,0.07776274,1.0562171,0.048103098,0.0,0.44412607,0.8009656,0.08777298,0.0,0.8390585,0.5766972,-0.29597637,0.0,0.5600595,656.77655,799.011,792.1612,841.31866,768.7912,0.0,0.0,0.08642578125,0.0355224609375,0.98809814453125,2.37762451171875,-4.358978271484375,-1.68975830078125,917069.597069597,108962051.28205128,63020732.6007326,79.86944,1.0,1.0,1.0,1.0,1.0,25.0,,0 days 00:00:00
2023-11-09 13:27:43.793,0.9966696,0.90224975,0.0,0.5626425,1.1368661,-0.3456213,0.0,0.07776274,1.0562171,0.048103098,0.0,0.44412607,0.8009656,0.08777298,0.0,0.8390585,0.5766972,-0.29597637,0.0,0.5600595,701.9048,805.05493,799.011,790.9524,702.3077,0.0,0.0,0.08642578125,0.0355224609375,0.98809814453125,2.37762451171875,-4.358978271484375,-1.68975830078125,917069.597069597,108962051.28205128,63020732.6007326,79.86944,1.0,1.0,1.0,1.0,1.0,25.0,,0 days 00:00:00.001000
2023-11-09 13:27:43.793,0.9966696,0.90224975,0.0,0.5626425,1.1368661,-0.3456213,0.0,0.07776274,1.0562171,0.048103098,0.0,0.44412607,0.8009656,0.08777298,0.0,0.8390585,0.5766972,-0.29597637,0.0,0.5600595,716.4103,796.99634,780.07324,805.8608,912.23444,0.0,0.0,0.08642578125,0.0355224609375,0.98809814453125,2.37762451171875,-4.358978271484375,-1.68975830078125,917069.597069597,108962051.28205128,63020732.6007326,79.86944,1.0,1.0,1.0,1.0,1.0,25.0,,0 days 00:00:00
2023-11-09 13:27:43.793,0.9966696,0.90224975,0.0,0.5626425,1.1368661,-0.3456213,0.0,0.07776274,1.0562171,0.048103098,0.0,0.44412607,0.8009656,0.08777298,0.0,0.8390585,0.5766972,-0.29597637,0.0,0.5600595,721.6484,803.0403,796.99634,849.7802,958.97437,0.0,0.0,0.08642578125,0.0355224609375,0.98809814453125,2.37762451171875,-4.358978271484375,-1.68975830078125,917069.597069597,108962051.28205128,63020732.6007326,79.86944,1.0,1.0,1.0,1.0,1.0,25.0,,0 days 00:00:00
2023-11-09 13:27:43.793,0.9966696,0.90224975,0.0,0.5626425,1.1368661,-0.3456213,0.0,0.07776274,1.0562171,0.048103098,0.0,0.44412607,0.8009656,0.08777298,0.0,0.8390585,0.5766972,-0.29597637,0.0,0.5600595,736.1539,812.71063,829.6337,821.5751,733.3333,0.0,0.0,0.08642578125,0.0355224609375,0.98809814453125,2.37762451171875,-4.358978271484375,-1.68975830078125,917069.597069597,108962051.28205128,63020732.6007326,79.86944,1.0,1.0,1.0,1.0,1.0,25.0,,0 days 00:00:00
2023-11-09 13:27:43.794,0.9966696,0.90224975,0.0,0.5626425,1.1368661,-0.3456213,0.0,0.07776274,1.0562171,0.048103098,0.0,0.44412607,0.8009656,0.08777298,0.0,0.8390585,0.5766972,-0.29597637,0.0,0.5600595,757.50916,803.8461,812.71063,802.6374,738.5714,0.0,0.0,0.08642578125,0.0355224609375,0.98809814453125,2.37762451171875,-4.358978271484375,-1.68975830078125,917069.597069597,108962051.28205128,63020732.6007326,79.86944,1.0,1.0,1.0,1.0,1.0,25.0,,0 days 00:00:00.001000
2023-11-09 13:27:43.823,0.9966696,0.90224975,0.0,0.5626425,1.1368661,-0.3456213,0.0,0.07776274,1.0562171,0.048103098,0.0,0.44412607,0.8009656,0.08777298,0.0,0.8390585,0.5766972,-0.29597637,0.0,0.5600595,790.14655,796.99634,804.2491,790.54944,729.707,0.0,0.0,0.1160888671875,0.05316162109375,1.00628662109375,3.342132568359375,-7.4468994140625,-0.171966552734375,923516.4835164836,108876630.03663003,62957069.5970696,79.86944,1.0,1.0,1.0,1.0,1.0,25.0,,0 days 00:00:00.029000
2023-11-09 13:27:43.823,0.9966696,0.90224975,0.0,0.5626425,1.1368661,-0.3456213,0.0,0.07776274,1.0562171,0.048103098,0.0,0.44412607,0.8009656,0.08777298,0.0,0.8390585,0.5766972,-0.29597637,0.0,0.5600595,781.685,802.6374,815.5311,822.381,745.82416,0.0,0.0,0.1160888671875,0.05316162109375,1.00628662109375,3.342132568359375,-7.4468994140625,-0.171966552734375,923516.4835164836,108876630.03663003,62957069.5970696,79.86944,1.0,1.0,1.0,1.0,1.0,25.0,,0 days 00:00:00
2023-11-09 13:27:43.824,0.9966696,0.90224975,0.0,0.5626425,1.1368661,-0.3456213,0.0,0.07776274,1.0562171,0.048103098,0.0,0.44412607,0.8009656,0.08777298,0.0,0.8390585,0.5766972,-0.29597637,0.0,0.5600595,820.3663,812.3077,819.5604,829.6337,717.619,0.0,0.0,0.1160888671875,0.05316162109375,1.00628662109375,3.342132568359375,-7.4468994140625,-0.171966552734375,923516.4835164836,108876630.03663003,62957069.5970696,79.86944,1.0,1.0,1.0,1.0,1.0,25.0,,0 days 00:00:00.001000
2023-11-09 13:27:43.824,0.9966696,0.90224975,0.0,0.5626425,1.1368661,-0.3456213,0.0,0.07776274,1.0562171,0.048103098,0.0,0.44412607,0.8009656,0.08777298,0.0,0.8390585,0.5766972,-0.29597637,0.0,0.5600595,845.7509,802.23444,811.0989,811.9048,750.2564,0.0,0.0,0.1160888671875,0.05316162109375,1.00628662109375,3.342132568359375,-7.4468994140625,-0.171966552734375,923516.4835164836,108876630.03663003,62957069.5970696,79.86944,1.0,1.0,1.0,1.0,1.0,25.0,,0 days 00:00:00
2023-11-09 13:27:43.825,0.9966696,0.90224975,0.0,0.5626425,1.1368661,-0.3456213,0.0,0.07776274,1.0562171,0.048103098,0.0,0.44412607,0.8009656,0.08777298,0.0,0.8390585,0.5766972,-0.29597637,0.0,0.5600595,859.85345,804.2491,810.696,809.89014,824.3956,0.0,0.0,0.1160888671875,0.05316162109375,1.00628662109375,3.342132568359375,-7.4468994140625,-0.171966552734375,923516.4835164836,108876630.03663003,62957069.5970696,79.86944,1.0,1.0,1.0,1.0,1.0,25.0,,0 days 00:00:00.001000
2023-11-09 13:27:43.825,0.9966696,0.90224975,0.0,0.5626425,1.1368661,-0.3456213,0.0,0.07776274,1.0562171,0.048103098,0.0,0.44412607,0.8009656,0.08777298,0.0,0.8390585,0.5766972,-0.29597637,0.0,0.5600595,850.989,809.4872,812.71063,797.8022,771.2088,0.0,0.0,0.1160888671875,0.05316162109375,1.00628662109375,3.342132568359375,-7.4468994140625,-0.171966552734375,923516.4835164836,108876630.03663003,62957069.5970696,79.86944,1.0,1.0,1.0,1.0,1.0,25.0,,0 days 00:00:00
2023-11-09 13:27:43.825,0.9966696,0.90224975,0.0,0.5626425,1.1368661,-0.3456213,0.0,0.07776274,1.0562171,0.048103098,0.0,0.44412607,0.8009656,0.08777298,0.0,0.8390585,0.5766972,-0.29597637,0.0,0.5600595,813.1135,796.5934,803.0403,802.23444,794.57874,0.0,0.0,0.1160888671875,0.05316162109375,1.00628662109375,3.342132568359375,-7.4468994140625,-0.171966552734375,923516.4835164836,108876630.03663003,62957069.5970696,79.86944,1.0,1.0,1.0,1.0,1.0,25.0,,0 days 00:00:00
2023-11-09 13:27:43.826,0.9966696,0.90224975,0.0,0.5626425,1.1368661,-0.3456213,0.0,0.07776274,1.0562171,0.048103098,0.0,0.44412607,0.8009656,0.08777298,0.0,0.8390585,0.5766972,-0.29597637,0.0,0.5600595,817.9487,792.5641,796.1905,821.978,894.5055,0.0,0.0,0.1160888671875,0.05316162109375,1.00628662109375,3.342132568359375,-7.4468994140625,-0.171966552734375,923516.4835164836,108876630.03663003,62957069.5970696,79.86944,1.0,1.0,1.0,1.0,1.0,25.0,,0 days 00:00:00.001000
2023-11-09 13:27:43.826,0.9966696,0.90224975,0.0,0.5626425,1.1368661,-0.3456213,0.0,0.07776274,1.0562171,0.048103098,0.0,0.44412607,0.8009656,0.08777298,0.0,0.8390585,0.5766972,-0.29597637,0.0,0.5600595,827.2161,792.5641,777.6557,828.4249,1102.8206,0.0,0.0,0.1160888671875,0.05316162109375,1.00628662109375,3.342132568359375,-7.4468994140625,-0.171966552734375,923516.4835164836,108876630.03663003,62957069.5970696,79.86944,1.0,1.0,1.0,1.0,1.0,25.0,,0 days 00:00:00
2023-11-09 13:27:43.827,0.9966696,0.90224975,0.0,0.5626425,1.1368661,-0.3456213,0.0,0.07776274,1.0562171,0.048103098,0.0,0.44412607,0.8009656,0.08777298,0.0,0.8390585,0.5766972,-0.29597637,0.0,0.5600595,837.28937,815.9341,816.337,824.3956,959.7802,0.0,0.0,0.1160888671875,0.05316162109375,1.00628662109375,3.342132568359375,-7.4468994140625,-0.171966552734375,923516.4835164836,108876630.03663003,62957069.5970696,79.86944,1.0,1.0,1.0,1.0,1.0,25.0,,0 days 00:00:00.001000
2023-11-09 13:27:43.827,0.9966696,0.90224975,0.0,0.5626425,1.1368661,-0.3456213,0.0,0.07776274,1.0562171,0.048103098,0.0,0.44412607,0.8009656,0.08777298,0.0,0.8390585,0.5766972,-0.29597637,0.0,0.5600595,839.304,818.3516,844.1392,798.60803,747.03296,0.0,0.0,0.1160888671875,0.05316162109375,1.00628662109375,3.342132568359375,-7.4468994140625,-0.171966552734375,923516.4835164836,108876630.03663003,62957069.5970696,79.86944,1.0,1.0,1.0,1.0,1.0,25.0,,0 days 00:00:00
2023-11-09 13:27:43.827,0.9966696,0.90224975,0.0,0.5626425,1.1368661,-0.3456213,0.0,0.07776274,1.0562171,0.048103098,0.0,0.44412607,0.8009656,0.08777298,0.0,0.8390585,0.5766972,-0.29597637,0.0,0.5600595,839.707,811.9048,812.71063,800.2198,826.8132,0.0,0.0,0.1160888671875,0.05316162109375,1.00628662109375,3.342132568359375,-7.4468994140625,-0.171966552734375,923516.4835164836,108876630.03663003,62957069.5970696,79.86944,1.0,1.0,1.0,1.0,1.0,25.0,,0 days 00:00:00
2023-11-09 13:27:43.886,0.9966696,0.90224975,0.0,0.5626425,1.1368661,-0.3456213,0.0,0.07776274,1.0562171,0.048103098,0.0,0.44412607,0.8009656,0.08777298,0.0,0.8390585,0.5766972,-0.29597637,0.0,0.5600595,843.73627,823.5897,819.5604,812.3077,824.7985,0.0,0.0,0.1160888671875,0.05316162109375,1.00628662109375,3.342132568359375,-7.4468994140625,-0.171966552734375,923516.4835164836,108876630.03663003,62957069.5970696,79.86944,1.0,1.0,1.0,1.0,1.0,25.0,,0 days 00:00:00.059000
2023-11-09 13:27:43.887,0.9966696,0.90224975,0.0,0.5626425,1.1368661,-0.3456213,0.0,0.07776274,1.0562171,0.048103098,0.0,0.44412607,0.8009656,0.08777298,0.0,0.8390585,0.5766972,-0.29597637,0.0,0.5600595,842.1245,807.0696,831.6484,796.99634,703.5165,0.0,0.0,0.1160888671875,0.05316162109375,1.00628662109375,3.342132568359375,-7.4468994140625,-0.171966552734375,923516.4835164836,108876630.03663003,62957069.5970696,79.86944,1.0,1.0,1.0,1.0,1.0,25.0,,0 days 00:00:00.001000
2023-11-09 13:27:43.888,0.9966696,0.90224975,0.0,0.5626425,1.1368661,-0.3456213,0.0,0.07776274,1.0562171,0.048103098,0.0,0.44412607,0.8009656,0.08777298,0.0,0.8390585,0.5766972,-0.29597637,0.0,0.5600595,855.0183,790.54944,817.1429,787.72894,674.5055,0.0,0.0,0.1160888671875,0.05316162109375,1.00628662109375,3.342132568359375,-7.4468994140625,-0.171966552734375,923516.4835164836,108876630.03663003,62957069.5970696,79.86944,1.0,1.0,1.0,1.0,1.0,25.0,,0 days 00:00:00.001000
2023-11-09 13:27:43.888,0.9966696,0.90224975,0.0,0.5626425,1.1368661,-0.3456213,0.0,0.07776274,1.0562171,0.048103098,0.0,0.44412607,0.8009656,0.08777298,0.0,0.8390585,0.5766972,-0.29597637,0.0,0.5600595,830.0366,785.31134,812.71063,808.2784,788.93774,0.0,0.0,0.1160888671875,0.05316162109375,1.00628662109375,3.342132568359375,-7.4468994140625,-0.171966552734375,923516.4835164836,108876630.03663003,62957069.5970696,79.86944,1.0,1.0,1.0,1.0,1.0,25.0,,0 days 00:00:00
2023-11-09 13:27:43.889,0.9966696,0.90224975,0.0,0.5626425,1.1368661,-0.3456213,0.0,0.07776274,1.0562171,0.048103098,0.0,0.44412607,0.8009656,0.08777298,0.0,0.8390585,0.5766972,-0.29597637,0.0,0.5600595,788.1319,782.8938,825.2015,807.47253,796.1905,0.0,0.0,0.1160888671875,0.05316162109375,1.00628662109375,3.342132568359375,-7.4468994140625,-0.171966552734375,923516.4835164836,108876630.03663003,62957069.5970696,79.86944,1.0,1.0,1.0,1.0,1.0,25.0,,0 days 00:00:00.001000
2023-11-09 13:27:43.889,0.9966696,0.90224975,0.0,0.5626425,1.1368661,-0.3456213,0.0,0.07776274,1.0562171,0.048103098,0.0,0.44412607,0.8009656,0.08777298,0.0,0.8390585,0.5766972,-0.29597637,0.0,0.5600595,803.0403,786.9231,815.12823,784.5055,776.04395,0.0,0.0,0.1160888671875,0.05316162109375,1.00628662109375,3.342132568359375,-7.4468994140625,-0.171966552734375,923516.4835164836,108876630.03663003,62957069.5970696,79.86944,1.0,1.0,1.0,1.0,1.0,25.0,,0 days 00:00:00
2023-11-09 13:27:43.890,0.9966696,0.90224975,0.0,0.5626425,1.1368661,-0.3456213,0.0,0.07776274,1.0562171,0.048103098,0.0,0.44412607,0.8009656,0.08777298,0.0,0.8390585,0.5766972,-0.29597637,0.0,0.5600595,811.50183,795.38464,820.7692,789.34064,716.0073,0.0,0.0,0.1160888671875,0.05316162109375,1.00628662109375,3.342132568359375,-7.4468994140625,-0.171966552734375,923516.4835164836,108876630.03663003,62957069.5970696,79.86944,1.0,1.0,1.0,1.0,1.0,25.0,,0 days 00:00:00.001000
2023-11-09 13:27:43.890,0.9966696,0.90224975,0.0,0.5626425,1.1368661,-0.3456213,0.0,0.07776274,1.0562171,0.048103098,0.0,0.44412607,0.8009656,0.08777298,0.0,0.8390585,0.5766972,-0.29597637,0.0,0.5600595,819.5604,783.69965,803.8461,822.7839,888.86444,0.0,0.0,0.1160888671875,0.05316162109375,1.00628662109375,3.342132568359375,-7.4468994140625,-0.171966552734375,923516.4835164836,108876630.03663003,62957069.5970696,79.86944,1.0,1.0,1.0,1.0,1.0,25.0,,0 days 00:00:00
2023-11-09 13:27:43.891,0.9966696,0.90224975,0.0,0.5626425,1.1368661,-0.3456213,0.0,0.07776274,1.0562171,0.048103098,0.0,0.44412607,0.8009656,0.08777298,0.0,0.8390585,0.5766972,-0.29597637,0.0,0.5600595,798.60803,788.1319,797.8022,799.011,1019.41394,0.0,0.0,0.1160888671875,0.05316162109375,1.00628662109375,3.342132568359375,-7.4468994140625,-0.171966552734375,923516.4835164836,108876630.03663003,62957069.5970696,79.86944,1.0,1.0,1.0,1.0,1.0,25.0,,0 days 00:00:00.001000
2023-11-09 13:27:43.891,0.9966696,0.90224975,0.0,0.5626425,1.1368661,-0.3456213,0.0,0.07776274,1.0562171,0.048103098,0.0,0.44412607,0.8009656,0.08777298,0.0,0.8390585,0.5766972,-0.29597637,0.0,0.5600595,765.9707,805.05493,840.9158,755.4945,744.21246,0.0,0.0,0.1160888671875,0.05316162109375,1.00628662109375,3.342132568359375,-7.4468994140625,-0.171966552734375,923516.4835164836,108876630.03663003,62957069.5970696,79.86944,1.0,1.0,1.0,1.0,1.0,25.0,,0 days 00:00:00
2023-11-09 13:27:43.892,0.9966696,0.90224975,0.0,0.5626425,1.1368661,-0.3456213,0.0,0.07776274,1.0562171,0.048103098,0.0,0.44412607,0.8009656,0.08777298,0.0,0.8390585,0.5766972,-0.29597637,0.0,0.5600595,778.0586,803.0403,813.1135,767.98535,714.7985,0.0,0.0,0.1160888671875,0.05316162109375,1.00628662109375,3.342132568359375,-7.4468994140625,-0.171966552734375,923516.4835164836,108876630.03663003,62957069.5970696,79.86944,1.0,1.0,1.0,1.0,1.0,25.0,,0 days 00:00:00.001000
2023-11-09 13:27:43.892,0.9966696,0.90224975,0.0,0.5626425,1.1368661,-0.3456213,0.0,0.07776274,1.0562171,0.048103098,0.0,0.44412607,0.8009656,0.08777298,0.0,0.8390585,0.5766972,-0.29597637,0.0,0.5600595,787.326,801.02563,806.26373,794.57874,774.43225,0.0,0.0,0.1160888671875,0.05316162109375,1.00628662109375,3.342132568359375,-7.4468994140625,-0.171966552734375,923516.4835164836,108876630.03663003,62957069.5970696,79.86944,1.0,1.0,1.0,1.0,1.0,25.0,,0 days 00:00:00
2023-11-09 13:27:43.922,0.9966696,0.90224975,0.0,0.5626425,1.1368661,-0.3456213,0.0,0.07776274,1.0562171,0.048103098,0.0,0.44412607,0.8009656,0.08777298,0.0,0.8390585,0.5766972,-0.29597637,0.0,0.5600595,780.87915,795.78754,828.022,795.78754,765.16486,0.0,0.0,0.12158203125,0.05389404296875,1.00836181640625,2.25799560546875,-5.54779052734375,3.7982177734375,911428.5714285714,108891135.53113551,62919194.13919414,79.86944,1.0,1.0,1.0,1.0,1.0,25.0,,0 days 00:00:00.030000
2023-11-09 13:27:43.923,0.9966696,0.84034026,0.0,0.5626425,1.1368661,0.4068338,0.0,0.07776274,1.0562171,-0.17736045,0.0,0.44412607,0.8009656,0.31528553,0.0,0.8390585,0.5766972,-0.15444583,0.0,0.5600595,764.35895,799.011,816.337,770.40295,721.2454,0.0,0.0,0.12158203125,0.05389404296875,1.00836181640625,2.25799560546875,-5.54779052734375,3.7982177734375,911428.5714285714,108891135.53113551,62919194.13919414,79.86944,1.0,1.0,1.0,1.0,1.0,25.0,,0 days 00:00:00.001000
2023-11-09 13:27:43.926,0.9966696,0.84034026,0.0,0.5626425,1.1368661,0.4068338,0.0,0.07776274,1.0562171,-0.17736045,0.0,0.44412607,0.8009656,0.31528553,0.0,0.8390585,0.5766972,-0.15444583,0.0,0.5600595,749.45056,792.1612,797.8022,771.6117,724.87177,0.0,0.0,0.12158203125,0.05389404296875,1.00836181640625,2.25799560546875,-5.54779052734375,3.7982177734375,911428.5714285714,108891135.53113551,62919194.13919414,79.86944,1.0,1.0,1.0,1.0,1.0,25.0,,0 days 00:00:00.003000
2023-11-09 13:27:43.926,0.9966696,0.84034026,0.0,0.5626425,1.1368661,0.4068338,0.0,0.07776274,1.0562171,-0.17736045,0.0,0.44412607,0.8009656,0.31528553,0.0,0.8390585,0.5766972,-0.15444583,0.0,0.5600595,753.0769,788.5348,807.8755,796.99634,797.8022,0.0,0.0,0.12158203125,0.05389404296875,1.00836181640625,2.25799560546875,-5.54779052734375,3.7982177734375,911428.5714285714,108891135.53113551,62919194.13919414,79.86944,1.0,1.0,1.0,1.0,1.0,25.0,,0 days 00:00:00
2023-11-09 13:27:43.927,0.9966696,0.84034026,0.0,0.5626425,1.1368661,0.4068338,0.0,0.07776274,1.0562171,-0.17736045,0.0,0.44412607,0.8009656,0.31528553,0.0,0.8390585,0.5766972,-0.15444583,0.0,0.5600595,752.674,797.3993,832.4542,802.6374,822.381,0.0,0.0,0.12158203125,0.05389404296875,1.00836181640625,2.25799560546875,-5.54779052734375,3.7982177734375,911428.5714285714,108891135.53113551,62919194.13919414,79.86944,1.0,1.0,1.0,1.0,1.0,25.0,,0 days 00:00:00.001000
2023-11-09 13:27:43.927,0.9966696,0.84034026,0.0,0.5626425,1.1368661,0.4068338,0.0,0.07776274,1.0562171,-0.17736045,0.0,0.44412607,0.8009656,0.31528553,0.0,0.8390585,0.5766972,-0.15444583,0.0,0.5600595,734.94507,796.1905,818.7546,792.5641,785.7143,0.0,0.0,0.12158203125,0.05389404296875,1.00836181640625,2.25799560546875,-5.54779052734375,3.7982177734375,911428.5714285714,108891135.53113551,62919194.13919414,79.86944,1.0,1.0,1.0,1.0,1.0,25.0,,0 days 00:00:00
2023-11-09 13:27:43.928,0.9966696,0.84034026,0.0,0.5626425,1.1368661,0.4068338,0.0,0.07776274,1.0562171,-0.17736045,0.0,0.44412607,0.8009656,0.31528553,0.0,0.8390585,0.5766972,-0.15444583,0.0,0.5600595,737.76556,792.1612,793.7729,781.685,832.8571,0.0,0.0,0.12158203125,0.05389404296875,1.00836181640625,2.25799560546875,-5.54779052734375,3.7982177734375,911428.5714285714,108891135.53113551,62919194.13919414,79.86944,1.0,1.0,1.0,1.0,1.0,25.0,,0 days 00:00:00.001000
2023-11-09 13:27:43.928,0.9966696,0.84034026,0.0,0.5626425,1.1368661,0.4068338,0.0,0.07776274,1.0562171,-0.17736045,0.0,0.44412607,0.8009656,0.31528553,0.0,0.8390585,0.5766972,-0.15444583,0.0,0.5600595,751.4652,801.4286,791.3553,807.8755,1043.9927,0.0,0.0,0.12158203125,0.05389404296875,1.00836181640625,2.25799560546875,-5.54779052734375,3.7982177734375,911428.5714285714,108891135.53113551,62919194.13919414,79.86944,1.0,1.0,1.0,1.0,1.0,25.0,,0 days 00:00:00
2023-11-09 13:27:43.929,0.9966696,0.84034026,0.0,0.5626425,1.1368661,0.4068338,0.0,0.07776274,1.0562171,-0.17736045,0.0,0.44412607,0.8009656,0.31528553,0.0,0.8390585,0.5766972,-0.15444583,0.0,0.5600595,726.08057,810.293,821.5751,801.8315,958.5714,0.0,0.0,0.12158203125,0.05389404296875,1.00836181640625,2.25799560546875,-5.54779052734375,3.7982177734375,911428.5714285714,108891135.53113551,62919194.13919414,79.86944,1.0,1.0,1.0,1.0,1.0,25.0,,0 days 00:00:00.001000
2023-11-09 13:27:43.930,0.9966696,0.84034026,0.0,0.5626425,1.1368661,0.4068338,0.0,0.07776274,1.0562171,-0.17736045,0.0,0.44412607,0.8009656,0.31528553,0.0,0.8390585,0.5766972,-0.15444583,0.0,0.5600595,701.9048,808.68134,833.663,772.8205,753.0769,0.0,0.0,0.12158203125,0.05389404296875,1.00836181640625,2.25799560546875,-5.54779052734375,3.7982177734375,911428.5714285714,108891135.53113551,62919194.13919414,79.86944,1.0,1.0,1.0,1.0,1.0,25.0,,0 days 00:00:00.001000
2023-11-09 13:27:43.930,0.9966696,0.84034026,0.0,0.5626425,1.1368661,0.4068338,0.0,0.07776274,1.0562171,-0.17736045,0.0,0.44412607,0.8009656,0.31528553,0.0,0.8390585,0.5766972,-0.15444583,0.0,0.5600595,691.02563,797.3993,797.8022,778.46155,911.02563,0.0,0.0,0.12158203125,0.05389404296875,1.00836181640625,2.25799560546875,-5.54779052734375,3.7982177734375,911428.5714285714,108891135.53113551,62919194.13919414,79.86944,1.0,1.0,1.0,1.0,1.0,25.0,,0 days 00:00:00
2023-11-09 13:27:43.931,0.9966696,0.84034026,0.0,0.5626425,1.1368661,0.4068338,0.0,0.07776274,1.0562171,-0.17736045,0.0,0.44412607,0.8009656,0.31528553,0.0,0.8390585,0.5766972,-0.15444583,0.0,0.5600595,678.1319,794.57874,793.36993,795.38464,1030.6959,0.0,0.0,0.12158203125,0.05389404296875,1.00836181640625,2.25799560546875,-5.54779052734375,3.7982177734375,911428.5714285714,108891135.53113551,62919194.13919414,79.86944,1.0,1.0,1.0,1.0,1.0,25.0,,0 days 00:00:00.001000
2023-11-09 13:27:43.983,0.9966696,0.84034026,0.0,0.5626425,1.1368661,0.4068338,0.0,0.07776274,1.0562171,-0.17736045,0.0,0.44412607,0.8009656,0.31528553,0.0,0.8390585,0.5766972,-0.15444583,0.0,0.5600595,677.72894,811.9048,838.0952,792.96704,815.5311,0.0,0.0,0.0848388671875,0.0482177734375,1.002685546875,3.147735595703125,-2.788848876953125,-0.19439697265625,911428.5714285714,108891135.53113551,62919194.13919414,79.86944,1.0,1.0,1.0,1.0,1.0,25.0,,0 days 00:00:00.052000
2023-11-09 13:27:43.984,0.9966696,0.84034026,0.0,0.5626425,1.1368661,0.4068338,0.0,0.07776274,1.0562171,-0.17736045,0.0,0.44412607,0.8009656,0.31528553,0.0,0.8390585,0.5766972,-0.15444583,0.0,0.5600595,660.40295,801.4286,824.3956,783.2967,745.82416,0.0,0.0,0.0848388671875,0.0482177734375,1.002685546875,3.147735595703125,-2.788848876953125,-0.19439697265625,911428.5714285714,108891135.53113551,62919194.13919414,79.86944,1.0,1.0,1.0,1.0,1.0,25.0,,0 days 00:00:00.001000
2023-11-09 13:27:43.985,0.9966696,0.84034026,0.0,0.5626425,1.1368661,0.4068338,0.0,0.07776274,1.0562171,-0.17736045,0.0,0.44412607,0.8009656,0.31528553,0.0,0.8390585,0.5766972,-0.15444583,0.0,0.5600595,610.4396,796.5934,803.8461,777.6557,715.6044,0.0,0.0,0.0848388671875,0.0482177734375,1.002685546875,3.147735595703125,-2.788848876953125,-0.19439697265625,911428.5714285714,108891135.53113551,62919194.13919414,79.86944,1.0,1.0,1.0,1.0,1.0,25.0,,0 days 00:00:00.001000
2023-11-09 13:27:43.986,0.9966696,0.84034026,0.0,0.5626425,1.1368661,0.4068338,0.0,0.07776274,1.0562171,-0.17736045,0.0,0.44412607,0.8009656,0.31528553,0.0,0.8390585,0.5766972,-0.15444583,0.0,0.5600595,578.60803,803.0403,817.5458,765.16486,709.5604,0.0,0.0,0.0848388671875,0.0482177734375,1.002685546875,3.147735595703125,-2.788848876953125,-0.19439697265625,911428.5714285714,108891135.53113551,62919194.13919414,79.86944,1.0,1.0,1.0,1.0,1.0,25.0,,0 days 00:00:00.001000
2023-11-09 13:27:43.986,0.9966696,0.84034026,0.0,0.5626425,1.1368661,0.4068338,0.0,0.07776274,1.0562171,-0.17736045,0.0,0.44412607,0.8009656,0.31528553,0.0,0.8390585,0.5766972,-0.15444583,0.0,0.5600595,579.011,799.011,824.3956,773.22345,700.696,0.0,0.0,0.0848388671875,0.0482177734375,1.002685546875,3.147735595703125,-2.788848876953125,-0.19439697265625,911428.5714285714,108891135.53113551,62919194.13919414,79.86944,1.0,1.0,1.0,1.0,1.0,25.0,,0 days 00:00:00
2023-11-09 13:27:43.987,0.9966696,0.84034026,0.0,0.5626425,1.1368661,0.4068338,0.0,0.07776274,1.0562171,-0.17736045,0.0,0.44412607,0.8009656,0.31528553,0.0,0.8390585,0.5766972,-0.15444583,0.0,0.5600595,581.4286,799.41394,814.3223,793.36993,695.05493,0.0,0.0,0.0848388671875,0.0482177734375,1.002685546875,3.147735595703125,-2.788848876953125,-0.19439697265625,911428.5714285714,108891135.53113551,62919194.13919414,79.86944,1.0,1.0,1.0,1.0,1.0,25.0,,0 days 00:00:00.001000
2023-11-09 13:27:43.988,0.9966696,0.84034026,0.0,0.5626425,1.1368661,0.4068338,0.0,0.07776274,1.0562171,-0.17736045,0.0,0.44412607,0.8009656,0.31528553,0.0,0.8390585,0.5766972,-0.15444583,0.0,0.5600595,553.6264,791.3553,776.8498,790.14655,896.9231,0.0,0.0,0.0848388671875,0.0482177734375,1.002685546875,3.147735595703125,-2.788848876953125,-0.19439697265625,911428.5714285714,108891135.53113551,62919194.13919414,79.86944,1.0,1.0,1.0,1.0,1.0,25.0,,0 days 00:00:00.001000
2023-11-09 13:27:43.988,0.9966696,0.84034026,0.0,0.5626425,1.1368661,0.4068338,0.0,0.07776274,1.0562171,-0.17736045,0.0,0.44412607,0.8009656,0.31528553,0.0,0.8390585,0.5766972,-0.15444583,0.0,0.5600595,515.34796,796.1905,789.34064,795.38464,932.381,0.0,0.0,0.0848388671875,0.0482177734375,1.002685546875,3.147735595703125,-2.788848876953125,-0.19439697265625,911428.5714285714,108891135.53113551,62919194.13919414,79.86944,1.0,1.0,1.0,1.0,1.0,25.0,,0 days 00:00:00
2023-11-09 13:27:43.989,0.9966696,0.84034026,0.0,0.5626425,1.1368661,0.4068338,0.0,0.07776274,1.0562171,-0.17736045,0.0,0.44412607,0.8009656,0.31528553,0.0,0.8390585,0.5766972,-0.15444583,0.0,0.5600595,504.8718,805.05493,825.6044,801.8315,670.4762,0.0,0.0,0.0848388671875,0.0482177734375,1.002685546875,3.147735595703125,-2.788848876953125,-0.19439697265625,911428.5714285714,108891135.53113551,62919194.13919414,79.86944,1.0,1.0,1.0,1.0,1.0,25.0,,0 days 00:00:00.001000
2023-11-09 13:27:43.989,0.9966696,0.84034026,0.0,0.5626425,1.1368661,0.4068338,0.0,0.07776274,1.0562171,-0.17736045,0.0,0.44412607,0.8009656,0.31528553,0.0,0.8390585,0.5766972,-0.15444583,0.0,0.5600595,496.00732,787.72894,803.8461,810.293,620.9158,0.0,0.0,0.0848388671875,0.0482177734375,1.002685546875,3.147735595703125,-2.788848876953125,-0.19439697265625,911428.5714285714,108891135.53113551,62919194.13919414,79.86944,1.0,1.0,1.0,1.0,1.0,25.0,,0 days 00:00:00
2023-11-09 13:27:43.990,0.9966696,0.84034026,0.0,0.5626425,1.1368661,0.4068338,0.0,0.07776274,1.0562171,-0.17736045,0.0,0.44412607,0.8009656,0.31528553,0.0,0.8390585,0.5766972,-0.15444583,0.0,0.5600595,466.5934,787.72894,799.41394,797.3993,688.20514,0.0,0.0,0.0848388671875,0.0482177734375,1.002685546875,3.147735595703125,-2.788848876953125,-0.19439697265625,911428.5714285714,108891135.53113551,62919194.13919414,79.86944,1.0,1.0,1.0,1.0,1.0,25.0,,0 days 00:00:00.001000
2023-11-09 13:27:43.990,0.9966696,0.84034026,0.0,0.5626425,1.1368661,0.4068338,0.0,0.07776274,1.0562171,-0.17736045,0.0,0.44412607,0.8009656,0.31528553,0.0,0.8390585,0.5766972,-0.15444583,0.0,0.5600595,446.4469,797.3993,817.9487,773.6264,685.78754,0.0,0.0,0.0848388671875,0.0482177734375,1.002685546875,3.147735595703125,-2.788848876953125,-0.19439697265625,911428.5714285714,108891135.53113551,62919194.13919414,79.86944,1.0,1.0,1.0,1.0,1.0,25.0,,0 days 00:00:00
2023-11-09 13:27:44.018,0.9966696,0.84034026,0.0,0.5626425,1.1368661,0.4068338,0.0,0.07776274,1.0562171,-0.17736045,0.0,0.44412607,0.8009656,0.31528553,0.0,0.8390585,0.5766972,-0.15444583,0.0,0.5600595,458.13187,796.99634,829.2308,789.7436,716.8132,0.0,0.0,0.10198974609375,0.04022216796875,1.00128173828125,3.6187744140625,-5.390777587890625,-1.757049560546875,911428.5714285714,109009597.06959708,62960293.04029304,79.86944,1.0,1.0,1.0,1.0,1.0,25.0,,0 days 00:00:00.028000
2023-11-09 13:27:44.019,0.9966696,0.84034026,0.0,0.5626425,1.1368661,0.4068338,0.0,0.07776274,1.0562171,-0.17736045,0.0,0.44412607,0.8009656,0.31528553,0.0,0.8390585,0.5766972,-0.15444583,0.0,0.5600595,452.89377,795.38464,800.6227,810.696,772.4176,0.0,0.0,0.10198974609375,0.04022216796875,1.00128173828125,3.6187744140625,-5.390777587890625,-1.757049560546875,911428.5714285714,109009597.06959708,62960293.04029304,79.86944,1.0,1.0,1.0,1.0,1.0,25.0,,0 days 00:00:00.001000
2023-11-09 13:27:44.019,0.9966696,0.84034026,0.0,0.5626425,1.1368661,0.4068338,0.0,0.07776274,1.0562171,-0.17736045,0.0,0.44412607,0.8009656,0.31528553,0.0,0.8390585,0.5766972,-0.15444583,0.0,0.5600595,420.65933,797.3993,786.1172,798.60803,801.8315,0.0,0.0,0.10198974609375,0.04022216796875,1.00128173828125,3.6187744140625,-5.390777587890625,-1.757049560546875,911428.5714285714,109009597.06959708,62960293.04029304,79.86944,1.0,1.0,1.0,1.0,1.0,25.0,,0 days 00:00:00
2023-11-09 13:27:44.020,0.9966696,0.7652545,0.0,0.5626425,1.1368661,0.35270324,0.0,0.07776274,1.0562171,-0.16652335,0.0,0.44412607,0.8009656,0.33174628,0.0,0.8390585,0.5766972,-0.13422838,0.0,0.5600595,400.51282,799.81683,807.0696,779.67035,757.50916,0.0,0.0,0.10198974609375,0.04022216796875,1.00128173828125,3.6187744140625,-5.390777587890625,-1.757049560546875,911428.5714285714,109009597.06959708,62960293.04029304,79.86944,1.0,1.0,1.0,1.0,1.0,25.0,,0 days 00:00:00.001000
2023-11-09 13:27:44.022,0.9966696,0.7652545,0.0,0.5626425,1.1368661,0.35270324,0.0,0.07776274,1.0562171,-0.16652335,0.0,0.44412607,0.8009656,0.33174628,0.0,0.8390585,0.5766972,-0.13422838,0.0,0.5600595,400.1099,794.17584,796.1905,781.28204,694.2491,0.0,0.0,0.10198974609375,0.04022216796875,1.00128173828125,3.6187744140625,-5.390777587890625,-1.757049560546875,911428.5714285714,109009597.06959708,62960293.04029304,79.86944,1.0,1.0,1.0,1.0,1.0,25.0,,0 days 00:00:00.002000
2023-11-09 13:27:44.022,0.9966696,0.7652545,0.0,0.5626425,1.1368661,0.35270324,0.0,0.07776274,1.0562171,-0.16652335,0.0,0.44412607,0.8009656,0.33174628,0.0,0.8390585,0.5766972,-0.13422838,0.0,0.5600595,388.82785,784.90845,767.98535,806.26373,839.304,0.0,0.0,0.10198974609375,0.04022216796875,1.00128173828125,3.6187744140625,-5.390777587890625,-1.757049560546875,911428.5714285714,109009597.06959708,62960293.04029304,79.86944,1.0,1.0,1.0,1.0,1.0,25.0,,0 days 00:00:00
2023-11-09 13:27:44.023,0.9966696,0.7652545,0.0,0.5626425,1.1368661,0.35270324,0.0,0.07776274,1.0562171,-0.16652335,0.0,0.44412607,0.8009656,0.33174628,0.0,0.8390585,0.5766972,-0.13422838,0.0,0.5600595,361.02563,780.4762,772.8205,806.26373,990.40295,0.0,0.0,0.10198974609375,0.04022216796875,1.00128173828125,3.6187744140625,-5.390777587890625,-1.757049560546875,911428.5714285714,109009597.06959708,62960293.04029304,79.86944,1.0,1.0,1.0,1.0,1.0,25.0,,0 days 00:00:00.001000
2023-11-09 13:27:44.023,0.9966696,0.7652545,0.0,0.5626425,1.1368661,0.35270324,0.0,0.07776274,1.0562171,-0.16652335,0.0,0.44412607,0.8009656,0.33174628,0.0,0.8390585,0.5766972,-0.13422838,0.0,0.5600595,334.43222,786.52014,804.65204,783.69965,831.2454,0.0,0.0,0.10198974609375,0.04022216796875,1.00128173828125,3.6187744140625,-5.390777587890625,-1.757049560546875,911428.5714285714,109009597.06959708,62960293.04029304,79.86944,1.0,1.0,1.0,1.0,1.0,25.0,,0 days 00:00:00
2023-11-09 13:27:44.023,0.9966696,0.7652545,0.0,0.5626425,1.1368661,0.35270324,0.0,0.07776274,1.0562171,-0.16652335,0.0,0.44412607,0.8009656,0.33174628,0.0,0.8390585,0.5766972,-0.13422838,0.0,0.5600595,323.15018,794.17584,813.5165,778.86444,697.47253,0.0,0.0,0.10198974609375,0.04022216796875,1.00128173828125,3.6187744140625,-5.390777587890625,-1.757049560546875,911428.5714285714,109009597.06959708,62960293.04029304,79.86944,1.0,1.0,1.0,1.0,1.0,25.0,,0 days 00:00:00
2023-11-09 13:27:44.024,0.9966696,0.7652545,0.0,0.5626425,1.1368661,0.35270324,0.0,0.07776274,1.0562171,-0.16652335,0.0,0.44412607,0.8009656,0.33174628,0.0,0.8390585,0.5766972,-0.13422838,0.0,0.5600595,324.7619,779.67035,782.8938,796.5934,832.4542,0.0,0.0,0.10198974609375,0.04022216796875,1.00128173828125,3.6187744140625,-5.390777587890625,-1.757049560546875,911428.5714285714,109009597.06959708,62960293.04029304,79.86944,1.0,1.0,1.0,1.0,1.0,25.0,,0 days 00:00:00.001000
2023-11-09 13:27:44.024,0.9966696,0.7652545,0.0,0.5626425,1.1368661,0.35270324,0.0,0.07776274,1.0562171,-0.16652335,0.0,0.44412607,0.8009656,0.33174628,0.0,0.8390585,0.5766972,-0.13422838,0.0,0.5600595,302.60074,776.4469,780.07324,803.44324,1002.49084,0.0,0.0,0.10198974609375,0.04022216796875,1.00128173828125,3.6187744140625,-5.390777587890625,-1.757049560546875,911428.5714285714,109009597.06959708,62960293.04029304,79.86944,1.0,1.0,1.0,1.0,1.0,25.0,,0 days 00:00:00
2023-11-09 13:27:44.025,0.9966696,0.7652545,0.0,0.5626425,1.1368661,0.35270324,0.0,0.07776274,1.0562171,-0.16652335,0.0,0.44412607,0.8009656,0.33174628,0.0,0.8390585,0.5766972,-0.13422838,0.0,0.5600595,266.73993,794.9817,820.3663,771.6117,803.0403,0.0,0.0,0.10198974609375,0.04022216796875,1.00128173828125,3.6187744140625,-5.390777587890625,-1.757049560546875,911428.5714285714,109009597.06959708,62960293.04029304,79.86944,1.0,1.0,1.0,1.0,1.0,25.0,,0 days 00:00:00.001000
2023-11-09 13:27:44.091,0.9966696,0.7652545,0.0,0.5626425,1.1368661,0.35270324,0.0,0.07776274,1.0562171,-0.16652335,0.0,0.44412607,0.8009656,0.33174628,0.0,0.8390585,0.5766972,-0.13422838,0.0,0.5600595,262.71063,787.72894,814.3223,777.6557,730.5128,0.0,0.0,0.09814453125,0.040283203125,1.00054931640625,2.1832275390625,-4.62066650390625,-1.054229736328125,911428.5714285714,109009597.06959708,62960293.04029304,79.86944,1.0,1.0,1.0,1.0,1.0,25.0,,0 days 00:00:00.066000
2023-11-09 13:27:44.092,0.9966696,0.7652545,0.0,0.5626425,1.1368661,0.35270324,0.0,0.07776274,1.0562171,-0.16652335,0.0,0.44412607,0.8009656,0.33174628,0.0,0.8390585,0.5766972,-0.13422838,0.0,0.5600595,271.5751,786.1172,796.5934,803.44324,867.50916,0.0,0.0,0.09814453125,0.040283203125,1.00054931640625,2.1832275390625,-4.62066650390625,-1.054229736328125,911428.5714285714,109009597.06959708,62960293.04029304,79.86944,1.0,1.0,1.0,1.0,1.0,25.0,,0 days 00:00:00.001000
2023-11-09 13:27:44.093,0.9966696,0.7652545,0.0,0.5626425,1.1368661,0.35270324,0.0,0.07776274,1.0562171,-0.16652335,0.0,0.44412607,0.8009656,0.33174628,0.0,0.8390585,0.5766972,-0.13422838,0.0,0.5600595,273.99268,795.38464,812.71063,808.2784,838.0952,0.0,0.0,0.09814453125,0.040283203125,1.00054931640625,2.1832275390625,-4.62066650390625,-1.054229736328125,911428.5714285714,109009597.06959708,62960293.04029304,79.86944,1.0,1.0,1.0,1.0,1.0,25.0,,0 days 00:00:00.001000
2023-11-09 13:27:44.093,0.9966696,0.7652545,0.0,0.5626425,1.1368661,0.35270324,0.0,0.07776274,1.0562171,-0.16652335,0.0,0.44412607,0.8009656,0.33174628,0.0,0.8390585,0.5766972,-0.13422838,0.0,0.5600595,238.13187,792.5641,828.8278,802.23444,729.304,0.0,0.0,0.09814453125,0.040283203125,1.00054931640625,2.1832275390625,-4.62066650390625,-1.054229736328125,911428.5714285714,109009597.06959708,62960293.04029304,79.86944,1.0,1.0,1.0,1.0,1.0,25.0,,0 days 00:00:00
2023-11-09 13:27:44.094,0.9966696,0.7652545,0.0,0.5626425,1.1368661,0.35270324,0.0,0.07776274,1.0562171,-0.16652335,0.0,0.44412607,0.8009656,0.33174628,0.0,0.8390585,0.5766972,-0.13422838,0.0,0.5600595,224.0293,787.326,817.9487,792.96704,695.4579,0.0,0.0,0.09814453125,0.040283203125,1.00054931640625,2.1832275390625,-4.62066650390625,-1.054229736328125,911428.5714285714,109009597.06959708,62960293.04029304,79.86944,1.0,1.0,1.0,1.0,1.0,25.0,,0 days 00:00:00.001000
2023-11-09 13:27:44.094,0.9966696,0.7652545,0.0,0.5626425,1.1368661,0.35270324,0.0,0.07776274,1.0562171,-0.16652335,0.0,0.44412607,0.8009656,0.33174628,0.0,0.8390585,0.5766972,-0.13422838,0.0,0.5600595,228.05861,785.7143,806.26373,804.2491,808.68134,0.0,0.0,0.09814453125,0.040283203125,1.00054931640625,2.1832275390625,-4.62066650390625,-1.054229736328125,911428.5714285714,109009597.06959708,62960293.04029304,79.86944,1.0,1.0,1.0,1.0,1.0,25.0,,0 days 00:00:00
2023-11-09 13:27:44.095,0.9966696,0.7652545,0.0,0.5626425,1.1368661,0.35270324,0.0,0.07776274,1.0562171,-0.16652335,0.0,0.44412607,0.8009656,0.33174628,0.0,0.8390585,0.5766972,-0.13422838,0.0,0.5600595,206.30037,789.34064,810.696,816.337,913.0403,0.0,0.0,0.09814453125,0.040283203125,1.00054931640625,2.1832275390625,-4.62066650390625,-1.054229736328125,911428.5714285714,109009597.06959708,62960293.04029304,79.86944,1.0,1.0,1.0,1.0,1.0,25.0,,0 days 00:00:00.001000
2023-11-09 13:27:44.095,0.9966696,0.7652545,0.0,0.5626425,1.1368661,0.35270324,0.0,0.07776274,1.0562171,-0.16652335,0.0,0.44412607,0.8009656,0.33174628,0.0,0.8390585,0.5766972,-0.13422838,0.0,0.5600595,182.12454,791.3553,829.6337,817.9487,831.6484,0.0,0.0,0.09814453125,0.040283203125,1.00054931640625,2.1832275390625,-4.62066650390625,-1.054229736328125,911428.5714285714,109009597.06959708,62960293.04029304,79.86944,1.0,1.0,1.0,1.0,1.0,25.0,,0 days 00:00:00
2023-11-09 13:27:44.096,0.9966696,0.7652545,0.0,0.5626425,1.1368661,0.35270324,0.0,0.07776274,1.0562171,-0.16652335,0.0,0.44412607,0.8009656,0.33174628,0.0,0.8390585,0.5766972,-0.13422838,0.0,0.5600595,165.20146,783.2967,823.9927,795.38464,745.42126,0.0,0.0,0.09814453125,0.040283203125,1.00054931640625,2.1832275390625,-4.62066650390625,-1.054229736328125,911428.5714285714,109009597.06959708,62960293.04029304,79.86944,1.0,1.0,1.0,1.0,1.0,25.0,,0 days 00:00:00.001000
2023-11-09 13:27:44.096,0.9966696,0.7652545,0.0,0.5626425,1.1368661,0.35270324,0.0,0.07776274,1.0562171,-0.16652335,0.0,0.44412607,0.8009656,0.33174628,0.0,0.8390585,0.5766972,-0.13422838,0.0,0.5600595,186.15384,780.87915,794.57874,821.1722,891.28204,0.0,0.0,0.09814453125,0.040283203125,1.00054931640625,2.1832275390625,-4.62066650390625,-1.054229736328125,911428.5714285714,109009597.06959708,62960293.04029304,79.86944,1.0,1.0,1.0,1.0,1.0,25.0,,0 days 00:00:00
2023-11-09 13:27:44.097,0.9966696,0.7652545,0.0,0.5626425,1.1368661,0.35270324,0.0,0.07776274,1.0562171,-0.16652335,0.0,0.44412607,0.8009656,0.33174628,0.0,0.8390585,0.5766972,-0.13422838,0.0,0.5600595,207.10623,799.41394,817.9487,834.0659,931.978,0.0,0.0,0.09814453125,0.040283203125,1.00054931640625,2.1832275390625,-4.62066650390625,-1.054229736328125,911428.5714285714,109009597.06959708,62960293.04029304,79.86944,1.0,1.0,1.0,1.0,1.0,25.0,,0 days 00:00:00.001000
2023-11-09 13:27:44.097,0.9966696,0.7652545,0.0,0.5626425,1.1368661,0.35270324,0.0,0.07776274,1.0562171,-0.16652335,0.0,0.44412607,0.8009656,0.33174628,0.0,0.8390585,0.5766972,-0.13422838,0.0,0.5600595,207.9121,800.2198,845.34796,799.011,817.5458,0.0,0.0,0.09814453125,0.040283203125,1.00054931640625,2.1832275390625,-4.62066650390625,-1.054229736328125,911428.5714285714,109009597.06959708,62960293.04029304,79.86944,1.0,1.0,1.0,1.0,1.0,25.0,,0 days 00:00:00
2023-11-09 13:27:44.132,0.9966696,0.7652545,0.0,0.5626425,1.1368661,0.35270324,0.0,0.07776274,1.0562171,-0.16652335,0.0,0.44412607,0.8009656,0.33174628,0.0,0.8390585,0.5766972,-0.13422838,0.0,0.5600595,228.05861,791.3553,816.337,811.0989,799.81683,0.0,0.0,0.09814453125,0.040283203125,1.00054931640625,2.1832275390625,-4.62066650390625,-1.054229736328125,910622.7106227106,109158681.31868131,63052967.03296703,79.86944,1.0,1.0,1.0,1.0,1.0,25.0,,0 days 00:00:00.035000
2023-11-09 13:27:44.133,0.9966696,0.7652545,0.0,0.5626425,1.1368661,0.35270324,0.0,0.07776274,1.0562171,-0.16652335,0.0,0.44412607,0.8009656,0.33174628,0.0,0.8390585,0.5766972,-0.13422838,0.0,0.5600595,254.65201,795.38464,807.47253,811.0989,791.75824,0.0,0.0,0.09814453125,0.040283203125,1.00054931640625,2.1832275390625,-4.62066650390625,-1.054229736328125,910622.7106227106,109158681.31868131,63052967.03296703,79.86944,1.0,1.0,1.0,1.0,1.0,25.0,,0 days 00:00:00.001000
2023-11-09 13:27:44.134,0.9966696,0.7652545,0.0,0.5626425,1.1368661,0.35270324,0.0,0.07776274,1.0562171,-0.16652335,0.0,0.44412607,0.8009656,0.33174628,0.0,0.8390585,0.5766972,-0.13422838,0.0,0.5600595,255.45787,790.14655,821.1722,806.26373,755.89746,0.0,0.0,0.09814453125,0.040283203125,1.00054931640625,2.1832275390625,-4.62066650390625,-1.054229736328125,910622.7106227106,109158681.31868131,63052967.03296703,79.86944,1.0,1.0,1.0,1.0,1.0,25.0,,0 days 00:00:00.001000
2023-11-09 13:27:44.134,0.9966696,0.7652545,0.0,0.5626425,1.1368661,0.35270324,0.0,0.07776274,1.0562171,-0.16652335,0.0,0.44412607,0.8009656,0.33174628,0.0,0.8390585,0.5766972,-0.13422838,0.0,0.5600595,252.23444,786.1172,815.9341,824.7985,683.7729,0.0,0.0,0.09814453125,0.040283203125,1.00054931640625,2.1832275390625,-4.62066650390625,-1.054229736328125,910622.7106227106,109158681.31868131,63052967.03296703,79.86944,1.0,1.0,1.0,1.0,1.0,25.0,,0 days 00:00:00
2023-11-09 13:27:44.135,0.9966696,0.7652545,0.0,0.5626425,1.1368661,0.35270324,0.0,0.07776274,1.0562171,-0.16652335,0.0,0.44412607,0.8009656,0.33174628,0.0,0.8390585,0.5766972,-0.13422838,0.0,0.5600595,247.39926,786.9231,796.99634,823.5897,866.7033,0.0,0.0,0.09814453125,0.040283203125,1.00054931640625,2.1832275390625,-4.62066650390625,-1.054229736328125,910622.7106227106,109158681.31868131,63052967.03296703,79.86944,1.0,1.0,1.0,1.0,1.0,25.0,,0 days 00:00:00.001000
2023-11-09 13:27:44.135,0.9966696,0.70087796,0.0,0.5626425,1.1368661,0.30086526,0.0,0.07776274,1.0562171,-0.13863185,0.0,0.44412607,0.8009656,0.35757634,0.0,0.8390585,0.5766972,-0.1052823,0.0,0.5600595,256.66666,784.90845,791.3553,816.7399,946.08057,0.0,0.0,0.09814453125,0.040283203125,1.00054931640625,2.1832275390625,-4.62066650390625,-1.054229736328125,910622.7106227106,109158681.31868131,63052967.03296703,79.86944,1.0,1.0,1.0,1.0,1.0,25.0,,0 days 00:00:00
2023-11-09 13:27:44.138,0.9966696,0.70087796,0.0,0.5626425,1.1368661,0.30086526,0.0,0.07776274,1.0562171,-0.13863185,0.0,0.44412607,0.8009656,0.35757634,0.0,0.8390585,0.5766972,-0.1052823,0.0,0.5600595,262.30768,792.96704,819.9634,821.978,791.75824,0.0,0.0,0.09814453125,0.040283203125,1.00054931640625,2.1832275390625,-4.62066650390625,-1.054229736328125,910622.7106227106,109158681.31868131,63052967.03296703,79.86944,1.0,1.0,1.0,1.0,1.0,25.0,,0 days 00:00:00.003000
2023-11-09 13:27:44.138,0.9966696,0.70087796,0.0,0.5626425,1.1368661,0.30086526,0.0,0.07776274,1.0562171,-0.13863185,0.0,0.44412607,0.8009656,0.35757634,0.0,0.8390585,0.5766972,-0.1052823,0.0,0.5600595,281.64835,801.02563,819.5604,813.91943,801.8315,0.0,0.0,0.09814453125,0.040283203125,1.00054931640625,2.1832275390625,-4.62066650390625,-1.054229736328125,910622.7106227106,109158681.31868131,63052967.03296703,79.86944,1.0,1.0,1.0,1.0,1.0,25.0,,0 days 00:00:00
2023-11-09 13:27:44.139,0.9966696,0.70087796,0.0,0.5626425,1.1368661,0.30086526,0.0,0.07776274,1.0562171,-0.13863185,0.0,0.44412607,0.8009656,0.35757634,0.0,0.8390585,0.5766972,-0.1052823,0.0,0.5600595,301.39194,796.1905,792.96704,815.9341,849.7802,0.0,0.0,0.09814453125,0.040283203125,1.00054931640625,2.1832275390625,-4.62066650390625,-1.054229736328125,910622.7106227106,109158681.31868131,63052967.03296703,79.86944,1.0,1.0,1.0,1.0,1.0,25.0,,0 days 00:00:00.001000
2023-11-09 13:27:44.139,0.9966696,0.70087796,0.0,0.5626425,1.1368661,0.30086526,0.0,0.07776274,1.0562171,-0.13863185,0.0,0.44412607,0.8009656,0.35757634,0.0,0.8390585,0.5766972,-0.1052823,0.0,0.5600595,309.0476,788.1319,767.98535,832.8571,1044.7986,0.0,0.0,0.09814453125,0.040283203125,1.00054931640625,2.1832275390625,-4.62066650390625,-1.054229736328125,910622.7106227106,109158681.31868131,63052967.03296703,79.86944,1.0,1.0,1.0,1.0,1.0,25.0,,0 days 00:00:00
2023-11-09 13:27:44.140,0.9966696,0.70087796,0.0,0.5626425,1.1368661,0.30086526,0.0,0.07776274,1.0562171,-0.13863185,0.0,0.44412607,0.8009656,0.35757634,0.0,0.8390585,0.5766972,-0.1052823,0.0,0.5600595,313.88278,805.8608,807.8755,813.1135,939.2308,0.0,0.0,0.09814453125,0.040283203125,1.00054931640625,2.1832275390625,-4.62066650390625,-1.054229736328125,910622.7106227106,109158681.31868131,63052967.03296703,79.86944,1.0,1.0,1.0,1.0,1.0,25.0,,0 days 00:00:00.001000
2023-11-09 13:27:44.140,0.9966696,0.70087796,0.0,0.5626425,1.1368661,0.30086526,0.0,0.07776274,1.0562171,-0.13863185,0.0,0.44412607,0.8009656,0.35757634,0.0,0.8390585,0.5766972,-0.1052823,0.0,0.5600595,331.2088,807.8755,830.0366,799.81683,669.67035,0.0,0.0,0.09814453125,0.040283203125,1.00054931640625,2.1832275390625,-4.62066650390625,-1.054229736328125,910622.7106227106,109158681.31868131,63052967.03296703,79.86944,1.0,1.0,1.0,1.0,1.0,25.0,,0 days 00:00:00
2023-11-09 13:27:44.173,0.9966696,0.70087796,0.0,0.5626425,1.1368661,0.30086526,0.0,0.07776274,1.0562171,-0.13863185,0.0,0.44412607,0.8009656,0.35757634,0.0,0.8390585,0.5766972,-0.1052823,0.0,0.5600595,337.65567,798.20514,815.5311,821.5751,682.1612,0.0,0.0,0.09735107421875,0.0384521484375,0.99615478515625,1.973876953125,-4.314117431640625,-1.966400146484375,910622.7106227106,109158681.31868131,63052967.03296703,79.86944,1.0,1.0,1.0,1.0,1.0,25.0,,0 days 00:00:00.033000
2023-11-09 13:27:44.174,0.9966696,0.70087796,0.0,0.5626425,1.1368661,0.30086526,0.0,0.07776274,1.0562171,-0.13863185,0.0,0.44412607,0.8009656,0.35757634,0.0,0.8390585,0.5766972,-0.1052823,0.0,0.5600595,336.04395,802.6374,820.7692,807.47253,727.28937,0.0,0.0,0.09735107421875,0.0384521484375,0.99615478515625,1.973876953125,-4.314117431640625,-1.966400146484375,910622.7106227106,109158681.31868131,63052967.03296703,79.86944,1.0,1.0,1.0,1.0,1.0,25.0,,0 days 00:00:00.001000
2023-11-09 13:27:44.174,0.9966696,0.70087796,0.0,0.5626425,1.1368661,0.30086526,0.0,0.07776274,1.0562171,-0.13863185,0.0,0.44412607,0.8009656,0.35757634,0.0,0.8390585,0.5766972,-0.1052823,0.0,0.5600595,360.2198,807.8755,815.12823,790.9524,699.0842,0.0,0.0,0.09735107421875,0.0384521484375,0.99615478515625,1.973876953125,-4.314117431640625,-1.966400146484375,910622.7106227106,109158681.31868131,63052967.03296703,79.86944,1.0,1.0,1.0,1.0,1.0,25.0,,0 days 00:00:00
2023-11-09 13:27:44.175,0.9966696,0.70087796,0.0,0.5626425,1.1368661,0.30086526,0.0,0.07776274,1.0562171,-0.13863185,0.0,0.44412607,0.8009656,0.35757634,0.0,0.8390585,0.5766972,-0.1052823,0.0,0.5600595,390.43958,805.05493,801.4286,818.3516,697.0696,0.0,0.0,0.09735107421875,0.0384521484375,0.99615478515625,1.973876953125,-4.314117431640625,-1.966400146484375,910622.7106227106,109158681.31868131,63052967.03296703,79.86944,1.0,1.0,1.0,1.0,1.0,25.0,,0 days 00:00:00.001000
2023-11-09 13:27:44.175,0.9966696,0.70087796,0.0,0.5626425,1.1368661,0.30086526,0.0,0.07776274,1.0562171,-0.13863185,0.0,0.44412607,0.8009656,0.35757634,0.0,0.8390585,0.5766972,-0.1052823,0.0,0.5600595,394.8718,798.20514,794.17584,827.619,756.7033,0.0,0.0,0.09735107421875,0.0384521484375,0.99615478515625,1.973876953125,-4.314117431640625,-1.966400146484375,910622.7106227106,109158681.31868131,63052967.03296703,79.86944,1.0,1.0,1.0,1.0,1.0,25.0,,0 days 00:00:00
2023-11-09 13:27:44.176,0.9966696,0.70087796,0.0,0.5626425,1.1368661,0.30086526,0.0,0.07776274,1.0562171,-0.13863185,0.0,0.44412607,0.8009656,0.35757634,0.0,0.8390585,0.5766972,-0.1052823,0.0,0.5600595,384.3956,801.4286,800.2198,796.99634,789.7436,0.0,0.0,0.09735107421875,0.0384521484375,0.99615478515625,1.973876953125,-4.314117431640625,-1.966400146484375,910622.7106227106,109158681.31868131,63052967.03296703,79.86944,1.0,1.0,1.0,1.0,1.0,25.0,,0 days 00:00:00.001000
2023-11-09 13:27:44.176,0.9966696,0.70087796,0.0,0.5626425,1.1368661,0.30086526,0.0,0.07776274,1.0562171,-0.13863185,0.0,0.44412607,0.8009656,0.35757634,0.0,0.8390585,0.5766972,-0.1052823,0.0,0.5600595,387.21613,805.05493,802.23444,784.90845,766.3736,0.0,0.0,0.09735107421875,0.0384521484375,0.99615478515625,1.973876953125,-4.314117431640625,-1.966400146484375,910622.7106227106,109158681.31868131,63052967.03296703,79.86944,1.0,1.0,1.0,1.0,1.0,25.0,,0 days 00:00:00
2023-11-09 13:27:44.177,0.9966696,0.70087796,0.0,0.5626425,1.1368661,0.30086526,0.0,0.07776274,1.0562171,-0.13863185,0.0,0.44412607,0.8009656,0.35757634,0.0,0.8390585,0.5766972,-0.1052823,0.0,0.5600595,423.47986,807.47253,799.41394,814.3223,777.6557,0.0,0.0,0.09735107421875,0.0384521484375,0.99615478515625,1.973876953125,-4.314117431640625,-1.966400146484375,910622.7106227106,109158681.31868131,63052967.03296703,79.86944,1.0,1.0,1.0,1.0,1.0,25.0,,0 days 00:00:00.001000
2023-11-09 13:27:44.177,0.9966696,0.70087796,0.0,0.5626425,1.1368661,0.30086526,0.0,0.07776274,1.0562171,-0.13863185,0.0,0.44412607,0.8009656,0.35757634,0.0,0.8390585,0.5766972,-0.1052823,0.0,0.5600595,448.86447,794.9817,771.6117,836.8865,981.13556,0.0,0.0,0.09735107421875,0.0384521484375,0.99615478515625,1.973876953125,-4.314117431640625,-1.966400146484375,910622.7106227106,109158681.31868131,63052967.03296703,79.86944,1.0,1.0,1.0,1.0,1.0,25.0,,0 days 00:00:00
2023-11-09 13:27:44.178,0.9966696,0.70087796,0.0,0.5626425,1.1368661,0.30086526,0.0,0.07776274,1.0562171,-0.13863185,0.0,0.44412607,0.8009656,0.35757634,0.0,0.8390585,0.5766972,-0.1052823,0.0,0.5600595,432.34433,798.20514,782.0879,802.6374,1056.0806,0.0,0.0,0.09735107421875,0.0384521484375,0.99615478515625,1.973876953125,-4.314117431640625,-1.966400146484375,910622.7106227106,109158681.31868131,63052967.03296703,79.86944,1.0,1.0,1.0,1.0,1.0,25.0,,0 days 00:00:00.001000
2023-11-09 13:27:44.178,0.9966696,0.70087796,0.0,0.5626425,1.1368661,0.30086526,0.0,0.07776274,1.0562171,-0.13863185,0.0,0.44412607,0.8009656,0.35757634,0.0,0.8390585,0.5766972,-0.1052823,0.0,0.5600595,444.0293,814.7253,826.4103,774.83514,772.4176,0.0,0.0,0.09735107421875,0.0384521484375,0.99615478515625,1.973876953125,-4.314117431640625,-1.966400146484375,910622.7106227106,109158681.31868131,63052967.03296703,79.86944,1.0,1.0,1.0,1.0,1.0,25.0,,0 days 00:00:00
2023-11-09 13:27:44.178,0.9966696,0.70087796,0.0,0.5626425,1.1368661,0.30086526,0.0,0.07776274,1.0562171,-0.13863185,0.0,0.44412607,0.8009656,0.35757634,0.0,0.8390585,0.5766972,-0.1052823,0.0,0.5600595,473.84616,803.8461,806.26373,803.0403,710.3663,0.0,0.0,0.09735107421875,0.0384521484375,0.99615478515625,1.973876953125,-4.314117431640625,-1.966400146484375,910622.7106227106,109158681.31868131,63052967.03296703,79.86944,1.0,1.0,1.0,1.0,1.0,25.0,,0 days 00:00:00
2023-11-09 13:27:44.222,0.9966696,0.70087796,0.0,0.5626425,1.1368661,0.30086526,0.0,0.07776274,1.0562171,-0.13863185,0.0,0.44412607,0.8009656,0.35757634,0.0,0.8390585,0.5766972,-0.1052823,0.0,0.5600595,462.56412,801.8315,799.41394,809.4872,760.32965,0.0,0.0,0.10858154296875,0.04150390625,0.99237060546875,2.31781005859375,-4.486083984375,-2.22808837890625,921904.761904762,109208644.68864468,63123882.78388278,79.86944,1.0,1.0,1.0,1.0,1.0,25.0,,0 days 00:00:00.044000
2023-11-09 13:27:44.222,0.9966696,0.70087796,0.0,0.5626425,1.1368661,0.30086526,0.0,0.07776274,1.0562171,-0.13863185,0.0,0.44412607,0.8009656,0.35757634,0.0,0.8390585,0.5766972,-0.1052823,0.0,0.5600595,458.5348,805.8608,811.50183,796.1905,718.4249,0.0,0.0,0.10858154296875,0.04150390625,0.99237060546875,2.31781005859375,-4.486083984375,-2.22808837890625,921904.761904762,109208644.68864468,63123882.78388278,79.86944,1.0,1.0,1.0,1.0,1.0,25.0,,0 days 00:00:00
2023-11-09 13:27:44.223,0.9966696,0.70087796,0.0,0.5626425,1.1368661,0.30086526,0.0,0.07776274,1.0562171,-0.13863185,0.0,0.44412607,0.8009656,0.35757634,0.0,0.8390585,0.5766972,-0.1052823,0.0,0.5600595,463.7729,798.60803,799.41394,776.4469,653.5531,0.0,0.0,0.10858154296875,0.04150390625,0.99237060546875,2.31781005859375,-4.486083984375,-2.22808837890625,921904.761904762,109208644.68864468,63123882.78388278,79.86944,1.0,1.0,1.0,1.0,1.0,25.0,,0 days 00:00:00.001000
2023-11-09 13:27:44.223,0.9966696,0.70087796,0.0,0.5626425,1.1368661,0.30086526,0.0,0.07776274,1.0562171,-0.13863185,0.0,0.44412607,0.8009656,0.35757634,0.0,0.8390585,0.5766972,-0.1052823,0.0,0.5600595,486.337,797.8022,786.9231,808.2784,699.0842,0.0,0.0,0.10858154296875,0.04150390625,0.99237060546875,2.31781005859375,-4.486083984375,-2.22808837890625,921904.761904762,109208644.68864468,63123882.78388278,79.86944,1.0,1.0,1.0,1.0,1.0,25.0,,0 days 00:00:00
2023-11-09 13:27:44.224,0.9966696,0.70087796,0.0,0.5626425,1.1368661,0.30086526,0.0,0.07776274,1.0562171,-0.13863185,0.0,0.44412607,0.8009656,0.35757634,0.0,0.8390585,0.5766972,-0.1052823,0.0,0.5600595,523.4066,802.6374,788.93774,851.79486,802.6374,0.0,0.0,0.10858154296875,0.04150390625,0.99237060546875,2.31781005859375,-4.486083984375,-2.22808837890625,921904.761904762,109208644.68864468,63123882.78388278,79.86944,1.0,1.0,1.0,1.0,1.0,25.0,,0 days 00:00:00.001000
2023-11-09 13:27:44.224,0.9966696,0.70087796,0.0,0.5626425,1.1368661,0.30086526,0.0,0.07776274,1.0562171,-0.13863185,0.0,0.44412607,0.8009656,0.35757634,0.0,0.8390585,0.5766972,-0.1052823,0.0,0.5600595,525.82416,803.0403,794.57874,828.8278,821.5751,0.0,0.0,0.10858154296875,0.04150390625,0.99237060546875,2.31781005859375,-4.486083984375,-2.22808837890625,921904.761904762,109208644.68864468,63123882.78388278,79.86944,1.0,1.0,1.0,1.0,1.0,25.0,,0 days 00:00:00
2023-11-09 13:27:44.225,0.9966696,0.70087796,0.0,0.5626425,1.1368661,0.30086526,0.0,0.07776274,1.0562171,-0.13863185,0.0,0.44412607,0.8009656,0.35757634,0.0,0.8390585,0.5766972,-0.1052823,0.0,0.5600595,525.0183,806.6667,792.5641,791.3553,812.3077,0.0,0.0,0.10858154296875,0.04150390625,0.99237060546875,2.31781005859375,-4.486083984375,-2.22808837890625,921904.761904762,109208644.68864468,63123882.78388278,79.86944,1.0,1.0,1.0,1.0,1.0,25.0,,0 days 00:00:00.001000
2023-11-09 13:27:44.225,0.9966696,0.66258186,0.0,0.5626425,1.1368661,0.26190498,0.0,0.07776274,1.0562171,-0.09690358,0.0,0.44412607,0.8009656,0.39222914,0.0,0.8390585,0.5766972,-0.07352319,0.0,0.5600595,574.9817,803.44324,780.4762,799.41394,925.5311,0.0,0.0,0.10858154296875,0.04150390625,0.99237060546875,2.31781005859375,-4.486083984375,-2.22808837890625,921904.761904762,109208644.68864468,63123882.78388278,79.86944,1.0,2.0,1.0,1.0,2.0,25.0,,0 days 00:00:00
2023-11-09 13:27:44.227,0.9966696,0.66258186,0.0,0.5626425,1.1368661,0.26190498,0.0,0.07776274,1.0562171,-0.09690358,0.0,0.44412607,0.8009656,0.39222914,0.0,0.8390585,0.5766972,-0.07352319,0.0,0.5600595,608.4249,796.5934,755.89746,848.97437,1131.0256,0.0,0.0,0.10858154296875,0.04150390625,0.99237060546875,2.31781005859375,-4.486083984375,-2.22808837890625,921904.761904762,109208644.68864468,63123882.78388278,79.86944,1.0,2.0,1.0,1.0,2.0,25.0,,0 days 00:00:00.002000
2023-11-09 13:27:44.228,0.9966696,0.66258186,0.0,0.5626425,1.1368661,0.26190498,0.0,0.07776274,1.0562171,-0.09690358,0.0,0.44412607,0.8009656,0.39222914,0.0,0.8390585,0.5766972,-0.07352319,0.0,0.5600595,607.2161,812.71063,800.2198,834.4689,944.4689,0.0,0.0,0.10858154296875,0.04150390625,0.99237060546875,2.31781005859375,-4.486083984375,-2.22808837890625,921904.761904762,109208644.68864468,63123882.78388278,79.86944,1.0,2.0,1.0,1.0,2.0,25.0,,0 days 00:00:00.001000
2023-11-09 13:27:44.228,0.9966696,0.66258186,0.0,0.5626425,1.1368661,0.26190498,0.0,0.07776274,1.0562171,-0.09690358,0.0,0.44412607,0.8009656,0.39222914,0.0,0.8390585,0.5766972,-0.07352319,0.0,0.5600595,610.0366,810.293,820.7692,792.1612,711.1722,0.0,0.0,0.10858154296875,0.04150390625,0.99237060546875,2.31781005859375,-4.486083984375,-2.22808837890625,921904.761904762,109208644.68864468,63123882.78388278,79.86944,1.0,2.0,1.0,1.0,2.0,25.0,,0 days 00:00:00
2023-11-09 13:27:44.229,0.9966696,0.66258186,0.0,0.5626425,1.1368661,0.26190498,0.0,0.07776274,1.0562171,-0.09690358,0.0,0.44412607,0.8009656,0.39222914,0.0,0.8390585,0.5766972,-0.07352319,0.0,0.5600595,633.8095,798.20514,784.5055,811.0989,809.4872,0.0,0.0,0.10858154296875,0.04150390625,0.99237060546875,2.31781005859375,-4.486083984375,-2.22808837890625,921904.761904762,109208644.68864468,63123882.78388278,79.86944,1.0,2.0,1.0,1.0,2.0,25.0,,0 days 00:00:00.001000
2023-11-09 13:27:44.253,0.9966696,0.66258186,0.0,0.5626425,1.1368661,0.26190498,0.0,0.07776274,1.0562171,-0.09690358,0.0,0.44412607,0.8009656,0.39222914,0.0,0.8390585,0.5766972,-0.07352319,0.0,0.5600595,668.86444,805.05493,795.78754,812.71063,828.4249,0.0,0.0,0.120361328125,0.04217529296875,1.00164794921875,3.24493408203125,-6.34033203125,0.545806884765625,921904.761904762,109208644.68864468,63123882.78388278,79.86944,1.0,2.0,1.0,1.0,2.0,25.0,,0 days 00:00:00.024000
2023-11-09 13:27:44.253,0.9966696,0.66258186,0.0,0.5626425,1.1368661,0.26190498,0.0,0.07776274,1.0562171,-0.09690358,0.0,0.44412607,0.8009656,0.39222914,0.0,0.8390585,0.5766972,-0.07352319,0.0,0.5600595,692.6374,806.6667,809.89014,805.8608,735.7509,0.0,0.0,0.120361328125,0.04217529296875,1.00164794921875,3.24493408203125,-6.34033203125,0.545806884765625,921904.761904762,109208644.68864468,63123882.78388278,79.86944,1.0,2.0,1.0,1.0,2.0,25.0,,0 days 00:00:00
2023-11-09 13:27:44.254,0.9966696,0.66258186,0.0,0.5626425,1.1368661,0.26190498,0.0,0.07776274,1.0562171,-0.09690358,0.0,0.44412607,0.8009656,0.39222914,0.0,0.8390585,0.5766972,-0.07352319,0.0,0.5600595,717.619,798.60803,806.26373,808.2784,714.7985,0.0,0.0,0.120361328125,0.04217529296875,1.00164794921875,3.24493408203125,-6.34033203125,0.545806884765625,921904.761904762,109208644.68864468,63123882.78388278,79.86944,1.0,2.0,1.0,1.0,2.0,25.0,,0 days 00:00:00.001000
2023-11-09 13:27:44.254,0.9966696,0.66258186,0.0,0.5626425,1.1368661,0.26190498,0.0,0.07776274,1.0562171,-0.09690358,0.0,0.44412607,0.8009656,0.39222914,0.0,0.8390585,0.5766972,-0.07352319,0.0,0.5600595,744.21246,802.23444,801.02563,799.81683,703.5165,0.0,0.0,0.120361328125,0.04217529296875,1.00164794921875,3.24493408203125,-6.34033203125,0.545806884765625,921904.761904762,109208644.68864468,63123882.78388278,79.86944,1.0,2.0,1.0,1.0,2.0,25.0,,0 days 00:00:00
2023-11-09 13:27:44.255,0.9966696,0.66258186,0.0,0.5626425,1.1368661,0.26190498,0.0,0.07776274,1.0562171,-0.09690358,0.0,0.44412607,0.8009656,0.39222914,0.0,0.8390585,0.5766972,-0.07352319,0.0,0.5600595,769.19415,804.65204,804.2491,815.12823,720.4396,0.0,0.0,0.120361328125,0.04217529296875,1.00164794921875,3.24493408203125,-6.34033203125,0.545806884765625,921904.761904762,109208644.68864468,63123882.78388278,79.86944,1.0,2.0,1.0,1.0,2.0,25.0,,0 days 00:00:00.001000
2023-11-09 13:27:44.255,0.9966696,0.66258186,0.0,0.5626425,1.1368661,0.26190498,0.0,0.07776274,1.0562171,-0.09690358,0.0,0.44412607,0.8009656,0.39222914,0.0,0.8390585,0.5766972,-0.07352319,0.0,0.5600595,791.75824,794.17584,799.41394,829.2308,814.3223,0.0,0.0,0.120361328125,0.04217529296875,1.00164794921875,3.24493408203125,-6.34033203125,0.545806884765625,921904.761904762,109208644.68864468,63123882.78388278,79.86944,1.0,2.0,1.0,1.0,2.0,25.0,,0 days 00:00:00
2023-11-09 13:27:44.255,0.9966696,0.66258186,0.0,0.5626425,1.1368661,0.26190498,0.0,0.07776274,1.0562171,-0.09690358,0.0,0.44412607,0.8009656,0.39222914,0.0,0.8390585,0.5766972,-0.07352319,0.0,0.5600595,815.12823,797.3993,798.20514,812.71063,807.0696,0.0,0.0,0.120361328125,0.04217529296875,1.00164794921875,3.24493408203125,-6.34033203125,0.545806884765625,921904.761904762,109208644.68864468,63123882.78388278,79.86944,1.0,2.0,1.0,1.0,2.0,25.0,,0 days 00:00:00
2023-11-09 13:27:44.256,0.9966696,0.66258186,0.0,0.5626425,1.1368661,0.26190498,0.0,0.07776274,1.0562171,-0.09690358,0.0,0.44412607,0.8009656,0.39222914,0.0,0.8390585,0.5766972,-0.07352319,0.0,0.5600595,852.6007,801.02563,766.3736,803.0403,911.8315,0.0,0.0,0.120361328125,0.04217529296875,1.00164794921875,3.24493408203125,-6.34033203125,0.545806884765625,921904.761904762,109208644.68864468,63123882.78388278,79.86944,1.0,2.0,1.0,1.0,2.0,25.0,,0 days 00:00:00.001000
2023-11-09 13:27:44.256,0.9966696,0.66258186,0.0,0.5626425,1.1368661,0.26190498,0.0,0.07776274,1.0562171,-0.09690358,0.0,0.44412607,0.8009656,0.39222914,0.0,0.8390585,0.5766972,-0.07352319,0.0,0.5600595,882.4176,811.9048,781.685,806.26373,935.2015,0.0,0.0,0.120361328125,0.04217529296875,1.00164794921875,3.24493408203125,-6.34033203125,0.545806884765625,921904.761904762,109208644.68864468,63123882.78388278,79.86944,1.0,2.0,1.0,1.0,2.0,25.0,,0 days 00:00:00
2023-11-09 13:27:44.257,0.9966696,0.66258186,0.0,0.5626425,1.1368661,0.26190498,0.0,0.07776274,1.0562171,-0.09690358,0.0,0.44412607,0.8009656,0.39222914,0.0,0.8390585,0.5766972,-0.07352319,0.0,0.5600595,873.5531,817.1429,830.4396,805.4579,744.21246,0.0,0.0,0.120361328125,0.04217529296875,1.00164794921875,3.24493408203125,-6.34033203125,0.545806884765625,921904.761904762,109208644.68864468,63123882.78388278,79.86944,1.0,2.0,1.0,1.0,2.0,25.0,,0 days 00:00:00.001000
2023-11-09 13:27:44.257,0.9966696,0.66258186,0.0,0.5626425,1.1368661,0.26190498,0.0,0.07776274,1.0562171,-0.09690358,0.0,0.44412607,0.8009656,0.39222914,0.0,0.8390585,0.5766972,-0.07352319,0.0,0.5600595,884.43225,809.89014,806.26373,803.44324,767.1795,0.0,0.0,0.120361328125,0.04217529296875,1.00164794921875,3.24493408203125,-6.34033203125,0.545806884765625,921904.761904762,109208644.68864468,63123882.78388278,79.86944,1.0,2.0,1.0,1.0,2.0,25.0,,0 days 00:00:00
2023-11-09 13:27:44.257,0.9966696,0.66258186,0.0,0.5626425,1.1368661,0.26190498,0.0,0.07776274,1.0562171,-0.09690358,0.0,0.44412607,0.8009656,0.39222914,0.0,0.8390585,0.5766972,-0.07352319,0.0,0.5600595,907.3993,805.8608,795.78754,796.5934,776.04395,0.0,0.0,0.120361328125,0.04217529296875,1.00164794921875,3.24493408203125,-6.34033203125,0.545806884765625,921904.761904762,109208644.68864468,63123882.78388278,79.86944,1.0,2.0,1.0,1.0,2.0,25.0,,0 days 00:00:00
2023-11-09 13:27:44.320,0.9966696,0.66258186,0.0,0.5626425,1.1368661,0.26190498,0.0,0.07776274,1.0562171,-0.09690358,0.0,0.44412607,0.8009656,0.39222914,0.0,0.8390585,0.5766972,-0.07352319,0.0,0.5600595,928.7546,806.26373,807.47253,804.65204,691.8315,0.0,0.0,0.086181640625,0.044921875,1.01715087890625,2.7813720703125,-3.828125,1.5252685546875,921904.761904762,109037802.1978022,63031208.79120879,79.86944,1.0,2.0,1.0,1.0,2.0,25.0,,0 days 00:00:00.063000
2023-11-09 13:27:44.321,0.9966696,0.66258186,0.0,0.5626425,1.1368661,0.26190498,0.0,0.07776274,1.0562171,-0.09690358,0.0,0.44412607,0.8009656,0.39222914,0.0,0.8390585,0.5766972,-0.07352319,0.0,0.5600595,961.39197,813.1135,796.5934,824.7985,701.0989,0.0,0.0,0.086181640625,0.044921875,1.01715087890625,2.7813720703125,-3.828125,1.5252685546875,921904.761904762,109037802.1978022,63031208.79120879,79.86944,1.0,2.0,1.0,1.0,2.0,25.0,,0 days 00:00:00.001000
2023-11-09 13:27:44.322,0.9966696,0.66258186,0.0,0.5626425,1.1368661,0.26190498,0.0,0.07776274,1.0562171,-0.09690358,0.0,0.44412607,0.8009656,0.39222914,0.0,0.8390585,0.5766972,-0.07352319,0.0,0.5600595,995.2381,805.8608,777.6557,824.7985,811.50183,0.0,0.0,0.086181640625,0.044921875,1.01715087890625,2.7813720703125,-3.828125,1.5252685546875,921904.761904762,109037802.1978022,63031208.79120879,79.86944,1.0,2.0,1.0,1.0,2.0,25.0,,0 days 00:00:00.001000
2023-11-09 13:27:44.322,0.9966696,0.66258186,0.0,0.5626425,1.1368661,0.26190498,0.0,0.07776274,1.0562171,-0.09690358,0.0,0.44412607,0.8009656,0.39222914,0.0,0.8390585,0.5766972,-0.07352319,0.0,0.5600595,1006.1172,801.02563,792.1612,812.71063,829.2308,0.0,0.0,0.086181640625,0.044921875,1.01715087890625,2.7813720703125,-3.828125,1.5252685546875,921904.761904762,109037802.1978022,63031208.79120879,79.86944,1.0,2.0,1.0,1.0,2.0,25.0,,0 days 00:00:00
2023-11-09 13:27:44.323,0.9966696,0.66258186,0.0,0.5626425,1.1368661,0.26190498,0.0,0.07776274,1.0562171,-0.09690358,0.0,0.44412607,0.8009656,0.39222914,0.0,0.8390585,0.5766972,-0.07352319,0.0,0.5600595,1019.011,808.68134,808.68134,804.2491,721.6484,0.0,0.0,0.086181640625,0.044921875,1.01715087890625,2.7813720703125,-3.828125,1.5252685546875,921904.761904762,109037802.1978022,63031208.79120879,79.86944,1.0,2.0,1.0,1.0,2.0,25.0,,0 days 00:00:00.001000
2023-11-09 13:27:44.323,0.9966696,0.66258186,0.0,0.5626425,1.1368661,0.26190498,0.0,0.07776274,1.0562171,-0.09690358,0.0,0.44412607,0.8009656,0.39222914,0.0,0.8390585,0.5766972,-0.07352319,0.0,0.5600595,1049.6337,807.0696,794.17584,820.7692,705.5311,0.0,0.0,0.086181640625,0.044921875,1.01715087890625,2.7813720703125,-3.828125,1.5252685546875,921904.761904762,109037802.1978022,63031208.79120879,79.86944,1.0,2.0,1.0,1.0,2.0,25.0,,0 days 00:00:00
2023-11-09 13:27:44.324,0.9966696,0.66258186,0.0,0.5626425,1.1368661,0.26190498,0.0,0.07776274,1.0562171,-0.09690358,0.0,0.44412607,0.8009656,0.39222914,0.0,0.8390585,0.5766972,-0.07352319,0.0,0.5600595,1066.9597,801.02563,780.07324,840.10986,830.0366,0.0,0.0,0.086181640625,0.044921875,1.01715087890625,2.7813720703125,-3.828125,1.5252685546875,921904.761904762,109037802.1978022,63031208.79120879,79.86944,1.0,2.0,1.0,1.0,2.0,25.0,,0 days 00:00:00.001000
2023-11-09 13:27:44.324,0.9966696,0.66258186,0.0,0.5626425,1.1368661,0.26190498,0.0,0.07776274,1.0562171,-0.09690358,0.0,0.44412607,0.8009656,0.39222914,0.0,0.8390585,0.5766972,-0.07352319,0.0,0.5600595,1077.8389,795.38464,776.8498,837.28937,991.2088,0.0,0.0,0.086181640625,0.044921875,1.01715087890625,2.7813720703125,-3.828125,1.5252685546875,921904.761904762,109037802.1978022,63031208.79120879,79.86944,1.0,2.0,1.0,1.0,2.0,25.0,,0 days 00:00:00
2023-11-09 13:27:44.325,0.9966696,0.66258186,0.0,0.5626425,1.1368661,0.26190498,0.0,0.07776274,1.0562171,-0.09690358,0.0,0.44412607,0.8009656,0.39222914,0.0,0.8390585,0.5766972,-0.07352319,0.0,0.5600595,1085.0916,807.0696,813.5165,814.7253,852.1978,0.0,0.0,0.086181640625,0.044921875,1.01715087890625,2.7813720703125,-3.828125,1.5252685546875,921904.761904762,109037802.1978022,63031208.79120879,79.86944,1.0,2.0,1.0,1.0,2.0,25.0,,0 days 00:00:00.001000
2023-11-09 13:27:44.325,0.9966696,0.6503649,0.0,0.5626425,1.1368661,0.24234274,0.0,0.07776274,1.0562171,-0.045188047,0.0,0.44412607,0.8009656,0.42736745,0.0,0.8390585,0.5766972,-0.048475843,0.0,0.5600595,1096.7766,809.4872,818.3516,816.337,701.0989,0.0,0.0,0.086181640625,0.044921875,1.01715087890625,2.7813720703125,-3.828125,1.5252685546875,921904.761904762,109037802.1978022,63031208.79120879,79.86944,1.0,2.0,1.0,1.0,2.0,25.0,,0 days 00:00:00
2023-11-09 13:27:44.327,0.9966696,0.6503649,0.0,0.5626425,1.1368661,0.24234274,0.0,0.07776274,1.0562171,-0.045188047,0.0,0.44412607,0.8009656,0.42736745,0.0,0.8390585,0.5766972,-0.048475843,0.0,0.5600595,1124.1758,800.6227,780.4762,842.9304,809.0842,0.0,0.0,0.086181640625,0.044921875,1.01715087890625,2.7813720703125,-3.828125,1.5252685546875,921904.761904762,109037802.1978022,63031208.79120879,79.86944,1.0,2.0,1.0,1.0,2.0,25.0,,0 days 00:00:00.002000
2023-11-09 13:27:44.328,0.9966696,0.6503649,0.0,0.5626425,1.1368661,0.24234274,0.0,0.07776274,1.0562171,-0.045188047,0.0,0.44412607,0.8009656,0.42736745,0.0,0.8390585,0.5766972,-0.048475843,0.0,0.5600595,1124.9817,801.4286,790.54944,830.4396,813.5165,0.0,0.0,0.086181640625,0.044921875,1.01715087890625,2.7813720703125,-3.828125,1.5252685546875,921904.761904762,109037802.1978022,63031208.79120879,79.86944,1.0,2.0,1.0,1.0,2.0,25.0,,0 days 00:00:00.001000
2023-11-09 13:27:44.371,0.9966696,0.6503649,0.0,0.5626425,1.1368661,0.24234274,0.0,0.07776274,1.0562171,-0.045188047,0.0,0.44412607,0.8009656,0.42736745,0.0,0.8390585,0.5766972,-0.048475843,0.0,0.5600595,1109.2675,808.2784,818.3516,796.99634,668.46155,0.0,0.0,0.086181640625,0.044921875,1.01715087890625,2.7813720703125,-3.828125,1.5252685546875,921904.761904762,109037802.1978022,63031208.79120879,79.86944,1.0,2.0,1.0,1.0,2.0,25.0,,0 days 00:00:00.043000
2023-11-09 13:27:44.372,0.9966696,0.6503649,0.0,0.5626425,1.1368661,0.24234274,0.0,0.07776274,1.0562171,-0.045188047,0.0,0.44412607,0.8009656,0.42736745,0.0,0.8390585,0.5766972,-0.048475843,0.0,0.5600595,1121.7583,806.6667,805.05493,802.6374,641.06226,0.0,0.0,0.086181640625,0.044921875,1.01715087890625,2.7813720703125,-3.828125,1.5252685546875,921904.761904762,109037802.1978022,63031208.79120879,79.86944,1.0,2.0,1.0,1.0,2.0,25.0,,0 days 00:00:00.001000
2023-11-09 13:27:44.373,0.9966696,0.6503649,0.0,0.5626425,1.1368661,0.24234274,0.0,0.07776274,1.0562171,-0.045188047,0.0,0.44412607,0.8009656,0.42736745,0.0,0.8390585,0.5766972,-0.048475843,0.0,0.5600595,1136.6666,802.23444,790.14655,815.12823,691.4286,0.0,0.0,0.086181640625,0.044921875,1.01715087890625,2.7813720703125,-3.828125,1.5252685546875,921904.761904762,109037802.1978022,63031208.79120879,79.86944,1.0,2.0,1.0,1.0,2.0,25.0,,0 days 00:00:00.001000
2023-11-09 13:27:44.373,0.9966696,0.6503649,0.0,0.5626425,1.1368661,0.24234274,0.0,0.07776274,1.0562171,-0.045188047,0.0,0.44412607,0.8009656,0.42736745,0.0,0.8390585,0.5766972,-0.048475843,0.0,0.5600595,1125.3846,803.0403,799.81683,795.78754,711.978,0.0,0.0,0.086181640625,0.044921875,1.01715087890625,2.7813720703125,-3.828125,1.5252685546875,921904.761904762,109037802.1978022,63031208.79120879,79.86944,1.0,2.0,1.0,1.0,2.0,25.0,,0 days 00:00:00
2023-11-09 13:27:44.374,0.9966696,0.6503649,0.0,0.5626425,1.1368661,0.24234274,0.0,0.07776274,1.0562171,-0.045188047,0.0,0.44412607,0.8009656,0.42736745,0.0,0.8390585,0.5766972,-0.048475843,0.0,0.5600595,1126.1904,797.8022,802.6374,795.78754,735.34796,0.0,0.0,0.086181640625,0.044921875,1.01715087890625,2.7813720703125,-3.828125,1.5252685546875,921904.761904762,109037802.1978022,63031208.79120879,79.86944,1.0,2.0,1.0,1.0,2.0,25.0,,0 days 00:00:00.001000
2023-11-09 13:27:44.374,0.9966696,0.6503649,0.0,0.5626425,1.1368661,0.24234274,0.0,0.07776274,1.0562171,-0.045188047,0.0,0.44412607,0.8009656,0.42736745,0.0,0.8390585,0.5766972,-0.048475843,0.0,0.5600595,1141.5018,800.6227,794.57874,798.20514,729.304,0.0,0.0,0.086181640625,0.044921875,1.01715087890625,2.7813720703125,-3.828125,1.5252685546875,921904.761904762,109037802.1978022,63031208.79120879,79.86944,1.0,2.0,1.0,1.0,2.0,25.0,,0 days 00:00:00
2023-11-09 13:27:44.375,0.9966696,0.6503649,0.0,0.5626425,1.1368661,0.24234274,0.0,0.07776274,1.0562171,-0.045188047,0.0,0.44412607,0.8009656,0.42736745,0.0,0.8390585,0.5766972,-0.048475843,0.0,0.5600595,1166.4835,793.36993,767.1795,823.1868,933.1868,0.0,0.0,0.086181640625,0.044921875,1.01715087890625,2.7813720703125,-3.828125,1.5252685546875,921904.761904762,109037802.1978022,63031208.79120879,79.86944,1.0,2.0,1.0,1.0,2.0,25.0,,0 days 00:00:00.001000
2023-11-09 13:27:44.375,0.9966696,0.6503649,0.0,0.5626425,1.1368661,0.24234274,0.0,0.07776274,1.0562171,-0.045188047,0.0,0.44412607,0.8009656,0.42736745,0.0,0.8390585,0.5766972,-0.048475843,0.0,0.5600595,1191.4652,805.8608,781.28204,834.4689,1054.0659,0.0,0.0,0.086181640625,0.044921875,1.01715087890625,2.7813720703125,-3.828125,1.5252685546875,921904.761904762,109037802.1978022,63031208.79120879,79.86944,1.0,2.0,1.0,1.0,2.0,25.0,,0 days 00:00:00
2023-11-09 13:27:44.376,0.9966696,0.6503649,0.0,0.5626425,1.1368661,0.24234274,0.0,0.07776274,1.0562171,-0.045188047,0.0,0.44412607,0.8009656,0.42736745,0.0,0.8390585,0.5766972,-0.048475843,0.0,0.5600595,1193.4799,829.2308,836.4835,799.011,762.74725,0.0,0.0,0.086181640625,0.044921875,1.01715087890625,2.7813720703125,-3.828125,1.5252685546875,921904.761904762,109037802.1978022,63031208.79120879,79.86944,1.0,2.0,1.0,1.0,2.0,25.0,,0 days 00:00:00.001000
2023-11-09 13:27:44.376,0.9966696,0.6503649,0.0,0.5626425,1.1368661,0.24234274,0.0,0.07776274,1.0562171,-0.045188047,0.0,0.44412607,0.8009656,0.42736745,0.0,0.8390585,0.5766972,-0.048475843,0.0,0.5600595,1198.7179,817.1429,814.3223,801.8315,708.7546,0.0,0.0,0.086181640625,0.044921875,1.01715087890625,2.7813720703125,-3.828125,1.5252685546875,921904.761904762,109037802.1978022,63031208.79120879,79.86944,1.0,2.0,1.0,1.0,2.0,25.0,,0 days 00:00:00
2023-11-09 13:27:44.377,0.9966696,0.6503649,0.0,0.5626425,1.1368661,0.24234274,0.0,0.07776274,1.0562171,-0.045188047,0.0,0.44412607,0.8009656,0.42736745,0.0,0.8390585,0.5766972,-0.048475843,0.0,0.5600595,1205.1648,811.9048,781.685,821.1722,793.7729,0.0,0.0,0.086181640625,0.044921875,1.01715087890625,2.7813720703125,-3.828125,1.5252685546875,921904.761904762,109037802.1978022,63031208.79120879,79.86944,1.0,2.0,1.0,1.0,2.0,25.0,,0 days 00:00:00.001000
2023-11-09 13:27:44.377,0.9966696,0.6503649,0.0,0.5626425,1.1368661,0.24234274,0.0,0.07776274,1.0562171,-0.045188047,0.0,0.44412607,0.8009656,0.42736745,0.0,0.8390585,0.5766972,-0.048475843,0.0,0.5600595,1224.5055,816.337,796.1905,824.3956,780.07324,0.0,0.0,0.086181640625,0.044921875,1.01715087890625,2.7813720703125,-3.828125,1.5252685546875,921904.761904762,109037802.1978022,63031208.79120879,79.86944,1.0,2.0,1.0,1.0,2.0,25.0,,0 days 00:00:00
2023-11-09 13:27:44.417,0.9966696,0.6503649,0.0,0.5626425,1.1368661,0.24234274,0.0,0.07776274,1.0562171,-0.045188047,0.0,0.44412607,0.8009656,0.42736745,0.0,0.8390585,0.5766972,-0.048475843,0.0,0.5600595,1228.5348,811.9048,812.71063,807.8755,737.3626,0.0,0.0,0.1024169921875,0.04205322265625,1.00146484375,3.730926513671875,-5.944061279296875,0.695343017578125,913846.153846154,108735604.3956044,62902271.06227106,79.86944,1.0,2.0,1.0,1.0,2.0,25.0,,0 days 00:00:00.040000
2023-11-09 13:27:44.418,0.9966696,0.6503649,0.0,0.5626425,1.1368661,0.24234274,0.0,0.07776274,1.0562171,-0.045188047,0.0,0.44412607,0.8009656,0.42736745,0.0,0.8390585,0.5766972,-0.048475843,0.0,0.5600595,1261.1721,809.0842,790.9524,834.4689,778.46155,0.0,0.0,0.1024169921875,0.04205322265625,1.00146484375,3.730926513671875,-5.944061279296875,0.695343017578125,913846.153846154,108735604.3956044,62902271.06227106,79.86944,1.0,2.0,1.0,1.0,2.0,25.0,,0 days 00:00:00.001000
2023-11-09 13:27:44.418,0.9966696,0.6503649,0.0,0.5626425,1.1368661,0.24234274,0.0,0.07776274,1.0562171,-0.045188047,0.0,0.44412607,0.8009656,0.42736745,0.0,0.8390585,0.5766972,-0.048475843,0.0,0.5600595,1270.0366,813.91943,787.326,838.9011,835.6777,0.0,0.0,0.1024169921875,0.04205322265625,1.00146484375,3.730926513671875,-5.944061279296875,0.695343017578125,913846.153846154,108735604.3956044,62902271.06227106,79.86944,1.0,2.0,1.0,1.0,2.0,25.0,,0 days 00:00:00
2023-11-09 13:27:44.419,0.9966696,0.6503649,0.0,0.5626425,1.1368661,0.24234274,0.0,0.07776274,1.0562171,-0.045188047,0.0,0.44412607,0.8009656,0.42736745,0.0,0.8390585,0.5766972,-0.048475843,0.0,0.5600595,1238.2051,816.7399,809.4872,794.9817,747.03296,0.0,0.0,0.1024169921875,0.04205322265625,1.00146484375,3.730926513671875,-5.944061279296875,0.695343017578125,913846.153846154,108735604.3956044,62902271.06227106,79.86944,1.0,2.0,1.0,1.0,2.0,25.0,,0 days 00:00:00.001000
2023-11-09 13:27:44.419,0.9966696,0.6503649,0.0,0.5626425,1.1368661,0.24234274,0.0,0.07776274,1.0562171,-0.045188047,0.0,0.44412607,0.8009656,0.42736745,0.0,0.8390585,0.5766972,-0.048475843,0.0,0.5600595,1241.4286,810.696,813.1135,787.72894,692.6374,0.0,0.0,0.1024169921875,0.04205322265625,1.00146484375,3.730926513671875,-5.944061279296875,0.695343017578125,913846.153846154,108735604.3956044,62902271.06227106,79.86944,1.0,2.0,1.0,1.0,2.0,25.0,,0 days 00:00:00
2023-11-09 13:27:44.420,0.9966696,0.6503649,0.0,0.5626425,1.1368661,0.24234274,0.0,0.07776274,1.0562171,-0.045188047,0.0,0.44412607,0.8009656,0.42736745,0.0,0.8390585,0.5766972,-0.048475843,0.0,0.5600595,1243.8462,810.293,793.7729,796.1905,856.2271,0.0,0.0,0.1024169921875,0.04205322265625,1.00146484375,3.730926513671875,-5.944061279296875,0.695343017578125,913846.153846154,108735604.3956044,62902271.06227106,79.86944,1.0,2.0,1.0,1.0,2.0,25.0,,0 days 00:00:00.001000
2023-11-09 13:27:44.420,0.9966696,0.6503649,0.0,0.5626425,1.1368661,0.24234274,0.0,0.07776274,1.0562171,-0.045188047,0.0,0.44412607,0.8009656,0.42736745,0.0,0.8390585,0.5766972,-0.048475843,0.0,0.5600595,1236.1904,814.7253,774.83514,802.6374,954.5421,0.0,0.0,0.1024169921875,0.04205322265625,1.00146484375,3.730926513671875,-5.944061279296875,0.695343017578125,913846.153846154,108735604.3956044,62902271.06227106,79.86944,1.0,2.0,1.0,1.0,2.0,25.0,,0 days 00:00:00
2023-11-09 13:27:44.421,0.9966696,0.6503649,0.0,0.5626425,1.1368661,0.24234274,0.0,0.07776274,1.0562171,-0.045188047,0.0,0.44412607,0.8009656,0.42736745,0.0,0.8390585,0.5766972,-0.048475843,0.0,0.5600595,1204.762,814.3223,796.5934,786.52014,856.63007,0.0,0.0,0.1024169921875,0.04205322265625,1.00146484375,3.730926513671875,-5.944061279296875,0.695343017578125,913846.153846154,108735604.3956044,62902271.06227106,79.86944,1.0,2.0,1.0,1.0,2.0,25.0,,0 days 00:00:00.001000
2023-11-09 13:27:44.421,0.9966696,0.6503649,0.0,0.5626425,1.1368661,0.24234274,0.0,0.07776274,1.0562171,-0.045188047,0.0,0.44412607,0.8009656,0.42736745,0.0,0.8390585,0.5766972,-0.048475843,0.0,0.5600595,1171.7216,810.696,810.293,777.6557,824.3956,0.0,0.0,0.1024169921875,0.04205322265625,1.00146484375,3.730926513671875,-5.944061279296875,0.695343017578125,913846.153846154,108735604.3956044,62902271.06227106,79.86944,1.0,2.0,1.0,1.0,2.0,25.0,,0 days 00:00:00
2023-11-09 13:27:44.421,0.9966696,0.6503649,0.0,0.5626425,1.1368661,0.24234274,0.0,0.07776274,1.0562171,-0.045188047,0.0,0.44412607,0.8009656,0.42736745,0.0,0.8390585,0.5766972,-0.048475843,0.0,0.5600595,1163.2601,797.3993,790.9524,786.9231,881.6117,0.0,0.0,0.1024169921875,0.04205322265625,1.00146484375,3.730926513671875,-5.944061279296875,0.695343017578125,913846.153846154,108735604.3956044,62902271.06227106,79.86944,1.0,2.0,1.0,1.0,2.0,25.0,,0 days 00:00:00
2023-11-09 13:27:44.422,0.9966696,0.6503649,0.0,0.5626425,1.1368661,0.24234274,0.0,0.07776274,1.0562171,-0.045188047,0.0,0.44412607,0.8009656,0.42736745,0.0,0.8390585,0.5766972,-0.048475843,0.0,0.5600595,1168.0952,794.57874,774.83514,799.41394,1013.7729,0.0,0.0,0.1024169921875,0.04205322265625,1.00146484375,3.730926513671875,-5.944061279296875,0.695343017578125,913846.153846154,108735604.3956044,62902271.06227106,79.86944,1.0,2.0,1.0,1.0,2.0,25.0,,0 days 00:00:00.001000
2023-11-09 13:27:44.422,0.9966696,0.66403586,0.0,0.5626425,1.1368661,0.23956753,0.0,0.07776274,1.0562171,-0.028883211,0.0,0.44412607,0.8009656,0.4508266,0.0,0.8390585,0.5766972,-0.038002685,0.0,0.5600595,1171.7216,818.3516,813.91943,771.2088,850.58606,0.0,0.0,0.1024169921875,0.04205322265625,1.00146484375,3.730926513671875,-5.944061279296875,0.695343017578125,913846.153846154,108735604.3956044,62902271.06227106,79.86944,1.0,2.0,1.0,1.0,2.0,25.0,,0 days 00:00:00
2023-11-09 13:27:44.447,0.9966696,0.66403586,0.0,0.5626425,1.1368661,0.23956753,0.0,0.07776274,1.0562171,-0.028883211,0.0,0.44412607,0.8009656,0.4508266,0.0,0.8390585,0.5766972,-0.038002685,0.0,0.5600595,1182.6007,818.3516,821.1722,781.28204,738.97437,0.0,0.0,0.1153564453125,0.0521240234375,0.9892578125,4.299163818359375,-5.66741943359375,0.59814453125,913846.153846154,108735604.3956044,62902271.06227106,79.86944,1.0,2.0,1.0,1.0,2.0,25.0,,0 days 00:00:00.025000
2023-11-09 13:27:44.448,0.9966696,0.66403586,0.0,0.5626425,1.1368661,0.23956753,0.0,0.07776274,1.0562171,-0.028883211,0.0,0.44412607,0.8009656,0.4508266,0.0,0.8390585,0.5766972,-0.038002685,0.0,0.5600595,1161.6483,809.4872,797.8022,797.8022,788.93774,0.0,0.0,0.1153564453125,0.0521240234375,0.9892578125,4.299163818359375,-5.66741943359375,0.59814453125,913846.153846154,108735604.3956044,62902271.06227106,79.86944,1.0,2.0,1.0,1.0,2.0,25.0,,0 days 00:00:00.001000
2023-11-09 13:27:44.448,0.9966696,0.66403586,0.0,0.5626425,1.1368661,0.23956753,0.0,0.07776274,1.0562171,-0.028883211,0.0,0.44412607,0.8009656,0.4508266,0.0,0.8390585,0.5766972,-0.038002685,0.0,0.5600595,1148.3517,815.12823,804.65204,777.6557,754.68866,0.0,0.0,0.1153564453125,0.0521240234375,0.9892578125,4.299163818359375,-5.66741943359375,0.59814453125,913846.153846154,108735604.3956044,62902271.06227106,79.86944,1.0,2.0,1.0,1.0,2.0,25.0,,0 days 00:00:00
2023-11-09 13:27:44.448,0.9966696,0.66403586,0.0,0.5626425,1.1368661,0.23956753,0.0,0.07776274,1.0562171,-0.028883211,0.0,0.44412607,0.8009656,0.4508266,0.0,0.8390585,0.5766972,-0.038002685,0.0,0.5600595,1158.022,811.9048,809.89014,788.93774,723.663,0.0,0.0,0.1153564453125,0.0521240234375,0.9892578125,4.299163818359375,-5.66741943359375,0.59814453125,913846.153846154,108735604.3956044,62902271.06227106,79.86944,1.0,2.0,1.0,1.0,2.0,25.0,,0 days 00:00:00
2023-11-09 13:27:44.449,0.9966696,0.66403586,0.0,0.5626425,1.1368661,0.23956753,0.0,0.07776274,1.0562171,-0.028883211,0.0,0.44412607,0.8009656,0.4508266,0.0,0.8390585,0.5766972,-0.038002685,0.0,0.5600595,1160.4396,805.4579,793.7729,798.60803,783.69965,0.0,0.0,0.1153564453125,0.0521240234375,0.9892578125,4.299163818359375,-5.66741943359375,0.59814453125,913846.153846154,108735604.3956044,62902271.06227106,79.86944,1.0,2.0,1.0,1.0,2.0,25.0,,0 days 00:00:00.001000
2023-11-09 13:27:44.449,0.9966696,0.66403586,0.0,0.5626425,1.1368661,0.23956753,0.0,0.07776274,1.0562171,-0.028883211,0.0,0.44412607,0.8009656,0.4508266,0.0,0.8390585,0.5766972,-0.038002685,0.0,0.5600595,1152.7839,805.05493,774.83514,786.52014,833.663,0.0,0.0,0.1153564453125,0.0521240234375,0.9892578125,4.299163818359375,-5.66741943359375,0.59814453125,913846.153846154,108735604.3956044,62902271.06227106,79.86944,1.0,2.0,1.0,1.0,2.0,25.0,,0 days 00:00:00
2023-11-09 13:27:44.449,0.9966696,0.66403586,0.0,0.5626425,1.1368661,0.23956753,0.0,0.07776274,1.0562171,-0.028883211,0.0,0.44412607,0.8009656,0.4508266,0.0,0.8390585,0.5766972,-0.038002685,0.0,0.5600595,1139.4872,801.02563,784.90845,771.6117,828.8278,0.0,0.0,0.1153564453125,0.0521240234375,0.9892578125,4.299163818359375,-5.66741943359375,0.59814453125,913846.153846154,108735604.3956044,62902271.06227106,79.86944,1.0,2.0,1.0,1.0,2.0,25.0,,0 days 00:00:00
2023-11-09 13:27:44.449,0.9966696,0.66403586,0.0,0.5626425,1.1368661,0.23956753,0.0,0.07776274,1.0562171,-0.028883211,0.0,0.44412607,0.8009656,0.4508266,0.0,0.8390585,0.5766972,-0.038002685,0.0,0.5600595,1135.8608,803.44324,808.68134,772.01465,789.34064,0.0,0.0,0.1153564453125,0.0521240234375,0.9892578125,4.299163818359375,-5.66741943359375,0.59814453125,913846.153846154,108735604.3956044,62902271.06227106,79.86944,1.0,2.0,1.0,1.0,2.0,25.0,,0 days 00:00:00
2023-11-09 13:27:44.450,0.9966696,0.66403586,0.0,0.5626425,1.1368661,0.23956753,0.0,0.07776274,1.0562171,-0.028883211,0.0,0.44412607,0.8009656,0.4508266,0.0,0.8390585,0.5766972,-0.038002685,0.0,0.5600595,1147.5458,807.0696,802.6374,788.93774,726.4835,0.0,0.0,0.1153564453125,0.0521240234375,0.9892578125,4.299163818359375,-5.66741943359375,0.59814453125,913846.153846154,108735604.3956044,62902271.06227106,79.86944,1.0,2.0,1.0,1.0,2.0,25.0,,0 days 00:00:00.001000
2023-11-09 13:27:44.450,0.9966696,0.66403586,0.0,0.5626425,1.1368661,0.23956753,0.0,0.07776274,1.0562171,-0.028883211,0.0,0.44412607,0.8009656,0.4508266,0.0,0.8390585,0.5766972,-0.038002685,0.0,0.5600595,1151.5751,805.4579,778.0586,810.696,869.5238,0.0,0.0,0.1153564453125,0.0521240234375,0.9892578125,4.299163818359375,-5.66741943359375,0.59814453125,913846.153846154,108735604.3956044,62902271.06227106,79.86944,1.0,2.0,1.0,1.0,2.0,25.0,,0 days 00:00:00
2023-11-09 13:27:44.450,0.9966696,0.66403586,0.0,0.5626425,1.1368661,0.23956753,0.0,0.07776274,1.0562171,-0.028883211,0.0,0.44412607,0.8009656,0.4508266,0.0,0.8390585,0.5766972,-0.038002685,0.0,0.5600595,1133.8462,805.4579,803.8461,791.3553,853.00366,0.0,0.0,0.1153564453125,0.0521240234375,0.9892578125,4.299163818359375,-5.66741943359375,0.59814453125,913846.153846154,108735604.3956044,62902271.06227106,79.86944,1.0,2.0,1.0,1.0,2.0,25.0,,0 days 00:00:00
2023-11-09 13:27:44.451,0.9966696,0.66403586,0.0,0.5626425,1.1368661,0.23956753,0.0,0.07776274,1.0562171,-0.028883211,0.0,0.44412607,0.8009656,0.4508266,0.0,0.8390585,0.5766972,-0.038002685,0.0,0.5600595,1136.2638,807.8755,823.9927,772.01465,666.04395,0.0,0.0,0.1153564453125,0.0521240234375,0.9892578125,4.299163818359375,-5.66741943359375,0.59814453125,913846.153846154,108735604.3956044,62902271.06227106,79.86944,1.0,2.0,1.0,1.0,2.0,25.0,,0 days 00:00:00.001000
2023-11-09 13:27:44.503,0.9966696,0.66403586,0.0,0.5626425,1.1368661,0.23956753,0.0,0.07776274,1.0562171,-0.028883211,0.0,0.44412607,0.8009656,0.4508266,0.0,0.8390585,0.5766972,-0.038002685,0.0,0.5600595,1161.2454,804.2491,797.8022,800.2198,701.0989,0.0,0.0,0.103759765625,0.04730224609375,1.00079345703125,3.342132568359375,-4.8150634765625,0.336456298828125,916263.7362637364,108675970.6959707,62817655.677655675,79.86944,1.0,2.0,1.0,1.0,2.0,25.0,,0 days 00:00:00.052000
2023-11-09 13:27:44.504,0.9966696,0.66403586,0.0,0.5626425,1.1368661,0.23956753,0.0,0.07776274,1.0562171,-0.028883211,0.0,0.44412607,0.8009656,0.4508266,0.0,0.8390585,0.5766972,-0.038002685,0.0,0.5600595,1152.381,800.2198,791.75824,809.89014,841.31866,0.0,0.0,0.103759765625,0.04730224609375,1.00079345703125,3.342132568359375,-4.8150634765625,0.336456298828125,916263.7362637364,108675970.6959707,62817655.677655675,79.86944,1.0,2.0,1.0,1.0,2.0,25.0,,0 days 00:00:00.001000
2023-11-09 13:27:44.505,0.9966696,0.66403586,0.0,0.5626425,1.1368661,0.23956753,0.0,0.07776274,1.0562171,-0.028883211,0.0,0.44412607,0.8009656,0.4508266,0.0,0.8390585,0.5766972,-0.038002685,0.0,0.5600595,1127.8022,807.8755,815.12823,786.1172,763.5531,0.0,0.0,0.103759765625,0.04730224609375,1.00079345703125,3.342132568359375,-4.8150634765625,0.336456298828125,916263.7362637364,108675970.6959707,62817655.677655675,79.86944,1.0,2.0,1.0,1.0,2.0,25.0,,0 days 00:00:00.001000
2023-11-09 13:27:44.505,0.9966696,0.66403586,0.0,0.5626425,1.1368661,0.23956753,0.0,0.07776274,1.0562171,-0.028883211,0.0,0.44412607,0.8009656,0.4508266,0.0,0.8390585,0.5766972,-0.038002685,0.0,0.5600595,1148.3517,803.0403,818.7546,783.69965,680.54944,0.0,0.0,0.103759765625,0.04730224609375,1.00079345703125,3.342132568359375,-4.8150634765625,0.336456298828125,916263.7362637364,108675970.6959707,62817655.677655675,79.86944,1.0,2.0,1.0,1.0,2.0,25.0,,0 days 00:00:00
