TimeStamp,Delta_TP9,Delta_AF7,Delta_AF8,Delta_TP10,Theta_TP9,Theta_AF7,Theta_AF8,Theta_TP10,Alpha_TP9,Alpha_AF7,Alpha_AF8,Alpha_TP10,Beta_TP9,Beta_AF7,Beta_AF8,Beta_TP10,Gamma_TP9,Gamma_AF7,Gamma_AF8,Gamma_TP10,RAW_TP9,RAW_AF7,RAW_AF8,RAW_TP10,AUX_RIGHT,Mellow,Concentration,Accelerometer_X,Accelerometer_Y,Accelerometer_Z,Gyro_X,Gyro_Y,Gyro_Z,PPG_Ambient,PPG_IR,PPG_Red,Heart_Rate,HeadBandOn,HSI_TP9,HSI_AF7,HSI_AF8,HSI_TP10,Battery,Elements,TimeDifference
2023-11-09 13:53:11.703,0.92959034,0.66141593,0.55170035,0.17558742,0.4937605,0.042945016,0.40244505,-0.045057435,0.19117488,0.089939006,0.2982552,0.20120814,0.5858864,0.1513601,-0.031016426,0.44453588,0.25965196,0.13605459,-0.49142274,0.27041587,763.95605,796.1905,809.0842,769.59705,779.67035,100.0,0.0,-0.16143798828125,0.0621337890625,0.98480224609375,0.785064697265625,-9.159088134765623,-3.282318115234375,387619.0476190476,116774871.7948718,49952087.91208791,71.72405,1.0,1.0,1.0,1.0,1.0,20.0,,0 days 00:00:00.094000
2023-11-09 13:53:11.704,0.92959034,0.66141593,0.55170035,0.17558742,0.4937605,0.042945016,0.40244505,-0.045057435,0.19117488,0.089939006,0.2982552,0.20120814,0.5858864,0.1513601,-0.031016426,0.44453588,0.25965196,0.13605459,-0.49142274,0.27041587,763.95605,786.1172,810.293,778.86444,786.1172,100.0,0.0,-0.16143798828125,0.0621337890625,0.98480224609375,0.785064697265625,-9.159088134765623,-3.282318115234375,387619.0476190476,116774871.7948718,49952087.91208791,71.72405,1.0,1.0,1.0,1.0,1.0,20.0,,0 days 00:00:00.001000
2023-11-09 13:53:11.704,0.92959034,0.66141593,0.55170035,0.17558742,0.4937605,0.042945016,0.40244505,-0.045057435,0.19117488,0.089939006,0.2982552,0.20120814,0.5858864,0.1513601,-0.031016426,0.44453588,0.25965196,0.13605459,-0.49142274,0.27041587,772.4176,794.17584,808.68134,794.9817,860.65936,100.0,0.0,-0.16143798828125,0.0621337890625,0.98480224609375,0.785064697265625,-9.159088134765623,-3.282318115234375,387619.0476190476,116774871.7948718,49952087.91208791,71.72405,1.0,1.0,1.0,1.0,1.0,20.0,,0 days 00:00:00
2023-11-09 13:53:11.705,0.92959034,0.66141593,0.55170035,0.17558742,0.4937605,0.042945016,0.40244505,-0.045057435,0.19117488,0.089939006,0.2982552,0.20120814,0.5858864,0.1513601,-0.031016426,0.44453588,0.25965196,0.13605459,-0.49142274,0.27041587,773.6264,805.8608,804.65204,790.54944,789.7436,100.0,0.0,-0.16143798828125,0.0621337890625,0.98480224609375,0.785064697265625,-9.159088134765623,-3.282318115234375,387619.0476190476,116774871.7948718,49952087.91208791,71.72405,1.0,1.0,1.0,1.0,1.0,20.0,,0 days 00:00:00.001000
2023-11-09 13:53:11.706,0.92959034,0.66141593,0.55170035,0.17558742,0.4937605,0.042945016,0.40244505,-0.045057435,0.19117488,0.089939006,0.2982552,0.20120814,0.5858864,0.1513601,-0.031016426,0.44453588,0.25965196,0.13605459,-0.49142274,0.27041587,770.0,792.5641,805.05493,787.326,701.9048,100.0,0.0,-0.16143798828125,0.0621337890625,0.98480224609375,0.785064697265625,-9.159088134765623,-3.282318115234375,387619.0476190476,116774871.7948718,49952087.91208791,71.72405,1.0,1.0,1.0,1.0,1.0,20.0,,0 days 00:00:00.001000
2023-11-09 13:53:11.706,0.92959034,0.66141593,0.55170035,0.17558742,0.4937605,0.042945016,0.40244505,-0.045057435,0.19117488,0.089939006,0.2982552,0.20120814,0.5858864,0.1513601,-0.031016426,0.44453588,0.25965196,0.13605459,-0.49142274,0.27041587,751.4652,783.69965,804.65204,787.326,768.3883,100.0,0.0,-0.16143798828125,0.0621337890625,0.98480224609375,0.785064697265625,-9.159088134765623,-3.282318115234375,387619.0476190476,116774871.7948718,49952087.91208791,71.72405,1.0,1.0,1.0,1.0,1.0,20.0,,0 days 00:00:00
2023-11-09 13:53:11.707,0.92959034,0.66141593,0.55170035,0.17558742,0.4937605,0.042945016,0.40244505,-0.045057435,0.19117488,0.089939006,0.2982552,0.20120814,0.5858864,0.1513601,-0.031016426,0.44453588,0.25965196,0.13605459,-0.49142274,0.27041587,755.09155,795.38464,804.65204,789.34064,931.1722,100.0,0.0,-0.16143798828125,0.0621337890625,0.98480224609375,0.785064697265625,-9.159088134765623,-3.282318115234375,387619.0476190476,116774871.7948718,49952087.91208791,71.72405,1.0,1.0,1.0,1.0,1.0,20.0,,0 days 00:00:00.001000
2023-11-09 13:53:11.707,0.92959034,0.66141593,0.55170035,0.17558742,0.4937605,0.042945016,0.40244505,-0.045057435,0.19117488,0.089939006,0.2982552,0.20120814,0.5858864,0.1513601,-0.031016426,0.44453588,0.25965196,0.13605459,-0.49142274,0.27041587,761.53845,802.23444,803.8461,780.07324,858.24176,100.0,0.0,-0.16143798828125,0.0621337890625,0.98480224609375,0.785064697265625,-9.159088134765623,-3.282318115234375,387619.0476190476,116774871.7948718,49952087.91208791,71.72405,1.0,1.0,1.0,1.0,1.0,20.0,,0 days 00:00:00
2023-11-09 13:53:11.708,0.92959034,0.66141593,0.55170035,0.17558742,0.4937605,0.042945016,0.40244505,-0.045057435,0.19117488,0.089939006,0.2982552,0.20120814,0.5858864,0.1513601,-0.031016426,0.44453588,0.25965196,0.13605459,-0.49142274,0.27041587,757.50916,801.8315,796.5934,770.80585,755.4945,100.0,0.0,-0.16143798828125,0.0621337890625,0.98480224609375,0.785064697265625,-9.159088134765623,-3.282318115234375,387619.0476190476,116774871.7948718,49952087.91208791,71.72405,1.0,1.0,1.0,1.0,1.0,20.0,,0 days 00:00:00.001000
2023-11-09 13:53:11.708,0.92959034,0.66141593,0.55170035,0.17558742,0.4937605,0.042945016,0.40244505,-0.045057435,0.19117488,0.089939006,0.2982552,0.20120814,0.5858864,0.1513601,-0.031016426,0.44453588,0.25965196,0.13605459,-0.49142274,0.27041587,765.9707,799.41394,798.20514,782.0879,784.10254,100.0,0.0,-0.16143798828125,0.0621337890625,0.98480224609375,0.785064697265625,-9.159088134765623,-3.282318115234375,387619.0476190476,116774871.7948718,49952087.91208791,71.72405,1.0,1.0,1.0,1.0,1.0,20.0,,0 days 00:00:00
2023-11-09 13:53:11.708,0.92959034,0.66141593,0.55170035,0.17558742,0.4937605,0.042945016,0.40244505,-0.045057435,0.19117488,0.089939006,0.2982552,0.20120814,0.5858864,0.1513601,-0.031016426,0.44453588,0.25965196,0.13605459,-0.49142274,0.27041587,765.9707,796.1905,802.23444,790.14655,877.1795,100.0,0.0,-0.16143798828125,0.0621337890625,0.98480224609375,0.785064697265625,-9.159088134765623,-3.282318115234375,387619.0476190476,116774871.7948718,49952087.91208791,71.72405,1.0,1.0,1.0,1.0,1.0,20.0,,0 days 00:00:00
2023-11-09 13:53:11.709,0.92959034,0.66141593,0.55170035,0.17558742,0.4937605,0.042945016,0.40244505,-0.045057435,0.19117488,0.089939006,0.2982552,0.20120814,0.5858864,0.1513601,-0.031016426,0.44453588,0.25965196,0.13605459,-0.49142274,0.27041587,758.315,793.7729,798.60803,772.4176,819.15753,100.0,0.0,-0.16143798828125,0.0621337890625,0.98480224609375,0.785064697265625,-9.159088134765623,-3.282318115234375,387619.0476190476,116774871.7948718,49952087.91208791,71.72405,1.0,1.0,1.0,1.0,1.0,20.0,,0 days 00:00:00.001000
2023-11-09 13:53:11.710,0.92959034,0.66141593,0.55170035,0.17558742,0.4937605,0.042945016,0.40244505,-0.045057435,0.19117488,0.089939006,0.2982552,0.20120814,0.5858864,0.1513601,-0.031016426,0.44453588,0.25965196,0.13605459,-0.49142274,0.27041587,762.3443,795.38464,799.81683,774.83514,722.4542,100.0,0.0,-0.1546630859375,0.05694580078125,0.99896240234375,1.495361328125,-6.89361572265625,-2.773895263671875,387619.0476190476,116774871.7948718,49952087.91208791,71.72405,1.0,1.0,1.0,1.0,1.0,20.0,,0 days 00:00:00.001000
2023-11-09 13:53:11.710,0.92959034,0.66141593,0.55170035,0.17558742,0.4937605,0.042945016,0.40244505,-0.045057435,0.19117488,0.089939006,0.2982552,0.20120814,0.5858864,0.1513601,-0.031016426,0.44453588,0.25965196,0.13605459,-0.49142274,0.27041587,764.7619,795.38464,805.4579,789.7436,743.00366,100.0,0.0,-0.1546630859375,0.05694580078125,0.99896240234375,1.495361328125,-6.89361572265625,-2.773895263671875,387619.0476190476,116774871.7948718,49952087.91208791,71.72405,1.0,1.0,1.0,1.0,1.0,20.0,,0 days 00:00:00
2023-11-09 13:53:11.710,0.92959034,0.66141593,0.55170035,0.17558742,0.4937605,0.042945016,0.40244505,-0.045057435,0.19117488,0.089939006,0.2982552,0.20120814,0.5858864,0.1513601,-0.031016426,0.44453588,0.25965196,0.13605459,-0.49142274,0.27041587,763.1502,794.57874,804.65204,785.7143,768.7912,100.0,0.0,-0.1546630859375,0.05694580078125,0.99896240234375,1.495361328125,-6.89361572265625,-2.773895263671875,387619.0476190476,116774871.7948718,49952087.91208791,71.72405,1.0,1.0,1.0,1.0,1.0,20.0,,0 days 00:00:00
2023-11-09 13:53:11.711,0.92959034,0.66141593,0.5512039,0.17558742,0.4937605,0.042945016,0.4305803,-0.045057435,0.19117488,0.089939006,0.28653368,0.20120814,0.5858864,0.1513601,-0.047274522,0.44453588,0.25965196,0.13605459,-0.4843478,0.27041587,762.3443,796.1905,804.65204,784.90845,728.9011,100.0,0.0,-0.1546630859375,0.05694580078125,0.99896240234375,1.495361328125,-6.89361572265625,-2.773895263671875,387619.0476190476,116774871.7948718,49952087.91208791,71.72405,1.0,1.0,1.0,1.0,1.0,20.0,,0 days 00:00:00.001000
2023-11-09 13:53:11.713,0.92959034,0.66141593,0.5512039,0.17558742,0.4937605,0.042945016,0.4305803,-0.045057435,0.19117488,0.089939006,0.28653368,0.20120814,0.5858864,0.1513601,-0.047274522,0.44453588,0.25965196,0.13605459,-0.4843478,0.27041587,767.1795,796.99634,803.0403,784.5055,758.71796,100.0,0.0,-0.1546630859375,0.05694580078125,0.99896240234375,1.495361328125,-6.89361572265625,-2.773895263671875,387619.0476190476,116774871.7948718,49952087.91208791,71.72405,1.0,1.0,1.0,1.0,1.0,20.0,,0 days 00:00:00.002000
2023-11-09 13:53:11.713,0.92959034,0.66141593,0.5512039,0.17558742,0.4937605,0.042945016,0.4305803,-0.045057435,0.19117488,0.089939006,0.28653368,0.20120814,0.5858864,0.1513601,-0.047274522,0.44453588,0.25965196,0.13605459,-0.4843478,0.27041587,777.25275,805.4579,803.8461,787.72894,902.96704,100.0,0.0,-0.1546630859375,0.05694580078125,0.99896240234375,1.495361328125,-6.89361572265625,-2.773895263671875,387619.0476190476,116774871.7948718,49952087.91208791,71.72405,1.0,1.0,1.0,1.0,1.0,20.0,,0 days 00:00:00
2023-11-09 13:53:11.714,0.92959034,0.66141593,0.5512039,0.17558742,0.4937605,0.042945016,0.4305803,-0.045057435,0.19117488,0.089939006,0.28653368,0.20120814,0.5858864,0.1513601,-0.047274522,0.44453588,0.25965196,0.13605459,-0.4843478,0.27041587,778.86444,814.7253,808.68134,795.78754,992.01465,100.0,0.0,-0.1546630859375,0.05694580078125,0.99896240234375,1.495361328125,-6.89361572265625,-2.773895263671875,387619.0476190476,116774871.7948718,49952087.91208791,71.72405,1.0,1.0,1.0,1.0,1.0,20.0,,0 days 00:00:00.001000
2023-11-09 13:53:11.714,0.92959034,0.66141593,0.5512039,0.17558742,0.4937605,0.042945016,0.4305803,-0.045057435,0.19117488,0.089939006,0.28653368,0.20120814,0.5858864,0.1513601,-0.047274522,0.44453588,0.25965196,0.13605459,-0.4843478,0.27041587,773.6264,803.0403,806.26373,789.34064,871.13556,100.0,0.0,-0.1546630859375,0.05694580078125,0.99896240234375,1.495361328125,-6.89361572265625,-2.773895263671875,387619.0476190476,116774871.7948718,49952087.91208791,71.72405,1.0,1.0,1.0,1.0,1.0,20.0,,0 days 00:00:00
2023-11-09 13:53:11.714,0.92959034,0.66141593,0.5512039,0.17558742,0.4937605,0.042945016,0.4305803,-0.045057435,0.19117488,0.089939006,0.28653368,0.20120814,0.5858864,0.1513601,-0.047274522,0.44453588,0.25965196,0.13605459,-0.4843478,0.27041587,774.83514,795.78754,806.26373,778.0586,776.8498,100.0,0.0,-0.1546630859375,0.05694580078125,0.99896240234375,1.495361328125,-6.89361572265625,-2.773895263671875,387619.0476190476,116774871.7948718,49952087.91208791,71.72405,1.0,1.0,1.0,1.0,1.0,20.0,,0 days 00:00:00
2023-11-09 13:53:11.715,0.92959034,0.66141593,0.5512039,0.17558742,0.4937605,0.042945016,0.4305803,-0.045057435,0.19117488,0.089939006,0.28653368,0.20120814,0.5858864,0.1513601,-0.047274522,0.44453588,0.25965196,0.13605459,-0.4843478,0.27041587,785.31134,801.8315,807.47253,787.72894,919.89014,100.0,0.0,-0.1546630859375,0.05694580078125,0.99896240234375,1.495361328125,-6.89361572265625,-2.773895263671875,387619.0476190476,116774871.7948718,49952087.91208791,71.72405,1.0,1.0,1.0,1.0,1.0,20.0,,0 days 00:00:00.001000
2023-11-09 13:53:11.715,0.92959034,0.66141593,0.5512039,0.17558742,0.4937605,0.042945016,0.4305803,-0.045057435,0.19117488,0.089939006,0.28653368,0.20120814,0.5858864,0.1513601,-0.047274522,0.44453588,0.25965196,0.13605459,-0.4843478,0.27041587,779.2674,799.41394,807.0696,788.93774,990.80585,100.0,0.0,-0.1546630859375,0.05694580078125,0.99896240234375,1.495361328125,-6.89361572265625,-2.773895263671875,387619.0476190476,116774871.7948718,49952087.91208791,71.72405,1.0,1.0,1.0,1.0,1.0,20.0,,0 days 00:00:00
2023-11-09 13:53:11.715,0.92959034,0.66141593,0.5512039,0.17558742,0.4937605,0.042945016,0.4305803,-0.045057435,0.19117488,0.089939006,0.28653368,0.20120814,0.5858864,0.1513601,-0.047274522,0.44453588,0.25965196,0.13605459,-0.4843478,0.27041587,752.27106,787.72894,807.47253,778.86444,809.4872,100.0,0.0,-0.1546630859375,0.05694580078125,0.99896240234375,1.495361328125,-6.89361572265625,-2.773895263671875,387619.0476190476,116774871.7948718,49952087.91208791,71.72405,1.0,1.0,1.0,1.0,1.0,20.0,,0 days 00:00:00
2023-11-09 13:53:11.745,0.92959034,0.66141593,0.5512039,0.17558742,0.4937605,0.042945016,0.4305803,-0.045057435,0.19117488,0.089939006,0.28653368,0.20120814,0.5858864,0.1513601,-0.047274522,0.44453588,0.25965196,0.13605459,-0.4843478,0.27041587,756.7033,790.9524,807.8755,784.90845,741.79486,100.0,0.0,-0.15313720703125,0.05572509765625,0.99749755859375,1.74957275390625,-7.117919921875,-1.973876953125,388424.9084249084,116834505.4945055,49927912.08791209,71.72405,1.0,1.0,1.0,1.0,1.0,20.0,,0 days 00:00:00.030000
2023-11-09 13:53:11.745,0.92959034,0.66141593,0.5512039,0.17558742,0.4937605,0.042945016,0.4305803,-0.045057435,0.19117488,0.089939006,0.28653368,0.20120814,0.5858864,0.1513601,-0.047274522,0.44453588,0.25965196,0.13605459,-0.4843478,0.27041587,783.2967,801.8315,813.5165,781.685,863.47986,100.0,0.0,-0.15313720703125,0.05572509765625,0.99749755859375,1.74957275390625,-7.117919921875,-1.973876953125,388424.9084249084,116834505.4945055,49927912.08791209,71.72405,1.0,1.0,1.0,1.0,1.0,20.0,,0 days 00:00:00
2023-11-09 13:53:11.746,0.92959034,0.66141593,0.5512039,0.17558742,0.4937605,0.042945016,0.4305803,-0.045057435,0.19117488,0.089939006,0.28653368,0.20120814,0.5858864,0.1513601,-0.047274522,0.44453588,0.25965196,0.13605459,-0.4843478,0.27041587,785.31134,811.0989,812.71063,775.64105,794.9817,100.0,0.0,-0.15313720703125,0.05572509765625,0.99749755859375,1.74957275390625,-7.117919921875,-1.973876953125,388424.9084249084,116834505.4945055,49927912.08791209,71.72405,1.0,1.0,1.0,1.0,1.0,20.0,,0 days 00:00:00.001000
2023-11-09 13:53:11.746,0.92959034,0.66141593,0.5512039,0.17558742,0.4937605,0.042945016,0.4305803,-0.045057435,0.19117488,0.089939006,0.28653368,0.20120814,0.5858864,0.1513601,-0.047274522,0.44453588,0.25965196,0.13605459,-0.4843478,0.27041587,770.40295,808.2784,809.4872,779.67035,707.5458,100.0,0.0,-0.15313720703125,0.05572509765625,0.99749755859375,1.74957275390625,-7.117919921875,-1.973876953125,388424.9084249084,116834505.4945055,49927912.08791209,71.72405,1.0,1.0,1.0,1.0,1.0,20.0,,0 days 00:00:00
2023-11-09 13:53:11.747,0.92959034,0.66141593,0.5512039,0.17558742,0.4937605,0.042945016,0.4305803,-0.045057435,0.19117488,0.089939006,0.28653368,0.20120814,0.5858864,0.1513601,-0.047274522,0.44453588,0.25965196,0.13605459,-0.4843478,0.27041587,769.59705,803.44324,806.26373,778.0586,771.2088,100.0,0.0,-0.15313720703125,0.05572509765625,0.99749755859375,1.74957275390625,-7.117919921875,-1.973876953125,388424.9084249084,116834505.4945055,49927912.08791209,71.72405,1.0,1.0,1.0,1.0,1.0,20.0,,0 days 00:00:00.001000
2023-11-09 13:53:11.747,0.92959034,0.66141593,0.5512039,0.17558742,0.4937605,0.042945016,0.4305803,-0.045057435,0.19117488,0.089939006,0.28653368,0.20120814,0.5858864,0.1513601,-0.047274522,0.44453588,0.25965196,0.13605459,-0.4843478,0.27041587,781.28204,806.26373,807.8755,788.93774,1027.4725,100.0,0.0,-0.15313720703125,0.05572509765625,0.99749755859375,1.74957275390625,-7.117919921875,-1.973876953125,388424.9084249084,116834505.4945055,49927912.08791209,71.72405,1.0,1.0,1.0,1.0,1.0,20.0,,0 days 00:00:00
2023-11-09 13:53:11.748,0.92959034,0.66141593,0.5512039,0.17558742,0.4937605,0.042945016,0.4305803,-0.045057435,0.19117488,0.089939006,0.28653368,0.20120814,0.5858864,0.1513601,-0.047274522,0.44453588,0.25965196,0.13605459,-0.4843478,0.27041587,782.0879,806.26373,813.5165,787.326,963.4066,100.0,0.0,-0.15313720703125,0.05572509765625,0.99749755859375,1.74957275390625,-7.117919921875,-1.973876953125,388424.9084249084,116834505.4945055,49927912.08791209,71.72405,1.0,1.0,1.0,1.0,1.0,20.0,,0 days 00:00:00.001000
2023-11-09 13:53:11.748,0.92959034,0.66141593,0.5512039,0.17558742,0.4937605,0.042945016,0.4305803,-0.045057435,0.19117488,0.089939006,0.28653368,0.20120814,0.5858864,0.1513601,-0.047274522,0.44453588,0.25965196,0.13605459,-0.4843478,0.27041587,761.9414,801.8315,811.50183,774.43225,744.21246,100.0,0.0,-0.15313720703125,0.05572509765625,0.99749755859375,1.74957275390625,-7.117919921875,-1.973876953125,388424.9084249084,116834505.4945055,49927912.08791209,71.72405,1.0,1.0,1.0,1.0,1.0,20.0,,0 days 00:00:00
2023-11-09 13:53:11.749,0.92959034,0.66141593,0.5512039,0.17558742,0.4937605,0.042945016,0.4305803,-0.045057435,0.19117488,0.089939006,0.28653368,0.20120814,0.5858864,0.1513601,-0.047274522,0.44453588,0.25965196,0.13605459,-0.4843478,0.27041587,751.8681,799.41394,809.4872,782.8938,774.0293,100.0,0.0,-0.15313720703125,0.05572509765625,0.99749755859375,1.74957275390625,-7.117919921875,-1.973876953125,388424.9084249084,116834505.4945055,49927912.08791209,71.72405,1.0,1.0,1.0,1.0,1.0,20.0,,0 days 00:00:00.001000
2023-11-09 13:53:11.749,0.92959034,0.66141593,0.5512039,0.17558742,0.4937605,0.042945016,0.4305803,-0.045057435,0.19117488,0.089939006,0.28653368,0.20120814,0.5858864,0.1513601,-0.047274522,0.44453588,0.25965196,0.13605459,-0.4843478,0.27041587,761.53845,797.3993,808.2784,788.5348,859.85345,100.0,0.0,-0.15313720703125,0.05572509765625,0.99749755859375,1.74957275390625,-7.117919921875,-1.973876953125,388424.9084249084,116834505.4945055,49927912.08791209,71.72405,1.0,1.0,1.0,1.0,1.0,20.0,,0 days 00:00:00
2023-11-09 13:53:11.750,0.92959034,0.66141593,0.5512039,0.17558742,0.4937605,0.042945016,0.4305803,-0.045057435,0.19117488,0.089939006,0.28653368,0.20120814,0.5858864,0.1513601,-0.047274522,0.44453588,0.25965196,0.13605459,-0.4843478,0.27041587,763.1502,796.99634,807.8755,775.2381,744.61536,100.0,0.0,-0.15313720703125,0.05572509765625,0.99749755859375,1.74957275390625,-7.117919921875,-1.973876953125,388424.9084249084,116834505.4945055,49927912.08791209,71.72405,1.0,1.0,1.0,1.0,1.0,20.0,,0 days 00:00:00.001000
2023-11-09 13:53:11.750,0.92959034,0.66141593,0.5512039,0.17558742,0.4937605,0.042945016,0.4305803,-0.045057435,0.19117488,0.089939006,0.28653368,0.20120814,0.5858864,0.1513601,-0.047274522,0.44453588,0.25965196,0.13605459,-0.4843478,0.27041587,756.7033,794.9817,805.4579,776.8498,663.22345,100.0,0.0,-0.15313720703125,0.05572509765625,0.99749755859375,1.74957275390625,-7.117919921875,-1.973876953125,388424.9084249084,116834505.4945055,49927912.08791209,71.72405,1.0,1.0,1.0,1.0,1.0,20.0,,0 days 00:00:00
2023-11-09 13:53:11.791,0.92959034,0.66141593,0.5512039,0.17558742,0.4937605,0.042945016,0.4305803,-0.045057435,0.19117488,0.089939006,0.28653368,0.20120814,0.5858864,0.1513601,-0.047274522,0.44453588,0.25965196,0.13605459,-0.4843478,0.27041587,750.2564,799.41394,804.65204,784.5055,740.989,100.0,0.0,-0.1539306640625,0.0609130859375,0.99072265625,2.235565185546875,-5.7122802734375,-0.9869384765625,388424.9084249084,116834505.4945055,49927912.08791209,71.72405,1.0,1.0,1.0,1.0,1.0,20.0,,0 days 00:00:00.041000
2023-11-09 13:53:11.792,0.92959034,0.66141593,0.5512039,0.17558742,0.4937605,0.042945016,0.4305803,-0.045057435,0.19117488,0.089939006,0.28653368,0.20120814,0.5858864,0.1513601,-0.047274522,0.44453588,0.25965196,0.13605459,-0.4843478,0.27041587,753.8828,802.23444,803.0403,787.326,763.1502,100.0,0.0,-0.1539306640625,0.0609130859375,0.99072265625,2.235565185546875,-5.7122802734375,-0.9869384765625,388424.9084249084,116834505.4945055,49927912.08791209,71.72405,1.0,1.0,1.0,1.0,1.0,20.0,,0 days 00:00:00.001000
2023-11-09 13:53:11.793,0.92959034,0.66141593,0.5512039,0.17558742,0.4937605,0.042945016,0.4305803,-0.045057435,0.19117488,0.089939006,0.28653368,0.20120814,0.5858864,0.1513601,-0.047274522,0.44453588,0.25965196,0.13605459,-0.4843478,0.27041587,765.9707,800.2198,801.8315,785.31134,781.685,100.0,0.0,-0.1539306640625,0.0609130859375,0.99072265625,2.235565185546875,-5.7122802734375,-0.9869384765625,388424.9084249084,116834505.4945055,49927912.08791209,71.72405,1.0,1.0,1.0,1.0,1.0,20.0,,0 days 00:00:00.001000
2023-11-09 13:53:11.793,0.92959034,0.66141593,0.5512039,0.17558742,0.4937605,0.042945016,0.4305803,-0.045057435,0.19117488,0.089939006,0.28653368,0.20120814,0.5858864,0.1513601,-0.047274522,0.44453588,0.25965196,0.13605459,-0.4843478,0.27041587,757.9121,800.6227,803.0403,777.6557,750.65936,100.0,0.0,-0.1539306640625,0.0609130859375,0.99072265625,2.235565185546875,-5.7122802734375,-0.9869384765625,388424.9084249084,116834505.4945055,49927912.08791209,71.72405,1.0,1.0,1.0,1.0,1.0,20.0,,0 days 00:00:00
2023-11-09 13:53:11.793,0.92959034,0.66141593,0.5512039,0.17558742,0.4937605,0.042945016,0.4305803,-0.045057435,0.19117488,0.089939006,0.28653368,0.20120814,0.5858864,0.1513601,-0.047274522,0.44453588,0.25965196,0.13605459,-0.4843478,0.27041587,747.8388,798.60803,803.8461,785.7143,763.1502,100.0,0.0,-0.1539306640625,0.0609130859375,0.99072265625,2.235565185546875,-5.7122802734375,-0.9869384765625,388424.9084249084,116834505.4945055,49927912.08791209,71.72405,1.0,1.0,1.0,1.0,1.0,20.0,,0 days 00:00:00
2023-11-09 13:53:11.794,0.92959034,0.66141593,0.4418105,0.17558742,0.4937605,0.042945016,0.324314,-0.045057435,0.19117488,0.089939006,0.22029375,0.20120814,0.5858864,0.1513601,-0.106923476,0.44453588,0.25965196,0.13605459,-0.47270536,0.27041587,748.6447,792.96704,807.47253,784.10254,782.49084,100.0,0.0,-0.1539306640625,0.0609130859375,0.99072265625,2.235565185546875,-5.7122802734375,-0.9869384765625,388424.9084249084,116834505.4945055,49927912.08791209,71.72405,1.0,1.0,1.0,1.0,1.0,20.0,,0 days 00:00:00.001000
2023-11-09 13:53:11.795,0.92959034,0.66141593,0.4418105,0.17558742,0.4937605,0.042945016,0.324314,-0.045057435,0.19117488,0.089939006,0.22029375,0.20120814,0.5858864,0.1513601,-0.106923476,0.44453588,0.25965196,0.13605459,-0.47270536,0.27041587,750.65936,796.99634,808.68134,775.64105,770.0,100.0,0.0,-0.1539306640625,0.0609130859375,0.99072265625,2.235565185546875,-5.7122802734375,-0.9869384765625,388424.9084249084,116834505.4945055,49927912.08791209,71.72405,1.0,1.0,1.0,1.0,1.0,20.0,,0 days 00:00:00.001000
2023-11-09 13:53:11.795,0.92959034,0.66141593,0.4418105,0.17558742,0.4937605,0.042945016,0.324314,-0.045057435,0.19117488,0.089939006,0.22029375,0.20120814,0.5858864,0.1513601,-0.106923476,0.44453588,0.25965196,0.13605459,-0.47270536,0.27041587,755.4945,805.8608,809.0842,782.0879,822.381,100.0,0.0,-0.1539306640625,0.0609130859375,0.99072265625,2.235565185546875,-5.7122802734375,-0.9869384765625,388424.9084249084,116834505.4945055,49927912.08791209,71.72405,1.0,1.0,1.0,1.0,1.0,20.0,,0 days 00:00:00
2023-11-09 13:53:11.796,0.92959034,0.66141593,0.4418105,0.17558742,0.4937605,0.042945016,0.324314,-0.045057435,0.19117488,0.089939006,0.22029375,0.20120814,0.5858864,0.1513601,-0.106923476,0.44453588,0.25965196,0.13605459,-0.47270536,0.27041587,763.5531,807.0696,816.337,796.5934,944.0659,100.0,0.0,-0.1539306640625,0.0609130859375,0.99072265625,2.235565185546875,-5.7122802734375,-0.9869384765625,388424.9084249084,116834505.4945055,49927912.08791209,71.72405,1.0,1.0,1.0,1.0,1.0,20.0,,0 days 00:00:00.001000
2023-11-09 13:53:11.796,0.92959034,0.66141593,0.4418105,0.17558742,0.4937605,0.042945016,0.324314,-0.045057435,0.19117488,0.089939006,0.22029375,0.20120814,0.5858864,0.1513601,-0.106923476,0.44453588,0.25965196,0.13605459,-0.47270536,0.27041587,769.19415,799.41394,810.696,802.23444,1054.4689,100.0,0.0,-0.1539306640625,0.0609130859375,0.99072265625,2.235565185546875,-5.7122802734375,-0.9869384765625,388424.9084249084,116834505.4945055,49927912.08791209,71.72405,1.0,1.0,1.0,1.0,1.0,20.0,,0 days 00:00:00
2023-11-09 13:53:11.797,0.92959034,0.66141593,0.4418105,0.17558742,0.4937605,0.042945016,0.324314,-0.045057435,0.19117488,0.089939006,0.22029375,0.20120814,0.5858864,0.1513601,-0.106923476,0.44453588,0.25965196,0.13605459,-0.47270536,0.27041587,749.45056,794.57874,801.8315,776.04395,809.4872,100.0,0.0,-0.1539306640625,0.0609130859375,0.99072265625,2.235565185546875,-5.7122802734375,-0.9869384765625,388424.9084249084,116834505.4945055,49927912.08791209,71.72405,1.0,1.0,1.0,1.0,1.0,20.0,,0 days 00:00:00.001000
2023-11-09 13:53:11.797,0.92959034,0.66141593,0.4418105,0.17558742,0.4937605,0.042945016,0.324314,-0.045057435,0.19117488,0.089939006,0.22029375,0.20120814,0.5858864,0.1513601,-0.106923476,0.44453588,0.25965196,0.13605459,-0.47270536,0.27041587,744.61536,801.8315,801.8315,768.7912,707.1429,100.0,0.0,-0.1539306640625,0.0609130859375,0.99072265625,2.235565185546875,-5.7122802734375,-0.9869384765625,388424.9084249084,116834505.4945055,49927912.08791209,71.72405,1.0,1.0,1.0,1.0,1.0,20.0,,0 days 00:00:00
2023-11-09 13:53:11.860,0.92959034,0.66141593,0.4418105,0.17558742,0.4937605,0.042945016,0.324314,-0.045057435,0.19117488,0.089939006,0.22029375,0.20120814,0.5858864,0.1513601,-0.106923476,0.44453588,0.25965196,0.13605459,-0.47270536,0.27041587,754.68866,804.2491,800.2198,774.43225,807.0696,100.0,0.0,-0.1539306640625,0.0609130859375,0.99072265625,2.235565185546875,-5.7122802734375,-0.9869384765625,387619.0476190476,116748278.38827838,49918241.75824176,71.72405,1.0,1.0,1.0,1.0,1.0,20.0,,0 days 00:00:00.063000
2023-11-09 13:53:11.861,0.92959034,0.66141593,0.4418105,0.17558742,0.4937605,0.042945016,0.324314,-0.045057435,0.19117488,0.089939006,0.22029375,0.20120814,0.5858864,0.1513601,-0.106923476,0.44453588,0.25965196,0.13605459,-0.47270536,0.27041587,740.989,805.4579,801.8315,779.2674,786.1172,100.0,0.0,-0.1539306640625,0.0609130859375,0.99072265625,2.235565185546875,-5.7122802734375,-0.9869384765625,387619.0476190476,116748278.38827838,49918241.75824176,71.72405,1.0,1.0,1.0,1.0,1.0,20.0,,0 days 00:00:00.001000
2023-11-09 13:53:11.862,0.92959034,0.66141593,0.4418105,0.17558742,0.4937605,0.042945016,0.324314,-0.045057435,0.19117488,0.089939006,0.22029375,0.20120814,0.5858864,0.1513601,-0.106923476,0.44453588,0.25965196,0.13605459,-0.47270536,0.27041587,729.707,804.2491,806.6667,781.685,731.7216,100.0,0.0,-0.1539306640625,0.0609130859375,0.99072265625,2.235565185546875,-5.7122802734375,-0.9869384765625,387619.0476190476,116748278.38827838,49918241.75824176,71.72405,1.0,1.0,1.0,1.0,1.0,20.0,,0 days 00:00:00.001000
2023-11-09 13:53:11.862,0.92959034,0.66141593,0.4418105,0.17558742,0.4937605,0.042945016,0.324314,-0.045057435,0.19117488,0.089939006,0.22029375,0.20120814,0.5858864,0.1513601,-0.106923476,0.44453588,0.25965196,0.13605459,-0.47270536,0.27041587,755.4945,807.0696,804.2491,778.46155,749.0476,100.0,0.0,-0.1539306640625,0.0609130859375,0.99072265625,2.235565185546875,-5.7122802734375,-0.9869384765625,387619.0476190476,116748278.38827838,49918241.75824176,71.72405,1.0,1.0,1.0,1.0,1.0,20.0,,0 days 00:00:00
2023-11-09 13:53:11.863,0.92959034,0.66141593,0.4418105,0.17558742,0.4937605,0.042945016,0.324314,-0.045057435,0.19117488,0.089939006,0.22029375,0.20120814,0.5858864,0.1513601,-0.106923476,0.44453588,0.25965196,0.13605459,-0.47270536,0.27041587,766.77655,803.8461,799.81683,778.0586,769.19415,100.0,0.0,-0.1539306640625,0.0609130859375,0.99072265625,2.235565185546875,-5.7122802734375,-0.9869384765625,387619.0476190476,116748278.38827838,49918241.75824176,71.72405,1.0,1.0,1.0,1.0,1.0,20.0,,0 days 00:00:00.001000
2023-11-09 13:53:11.864,0.92959034,0.66141593,0.4418105,0.17558742,0.4937605,0.042945016,0.324314,-0.045057435,0.19117488,0.089939006,0.22029375,0.20120814,0.5858864,0.1513601,-0.106923476,0.44453588,0.25965196,0.13605459,-0.47270536,0.27041587,754.68866,801.8315,803.8461,775.2381,732.1245,100.0,0.0,-0.1539306640625,0.0609130859375,0.99072265625,2.235565185546875,-5.7122802734375,-0.9869384765625,387619.0476190476,116748278.38827838,49918241.75824176,71.72405,1.0,1.0,1.0,1.0,1.0,20.0,,0 days 00:00:00.001000
2023-11-09 13:53:11.864,0.92959034,0.66141593,0.4418105,0.17558742,0.4937605,0.042945016,0.324314,-0.045057435,0.19117488,0.089939006,0.22029375,0.20120814,0.5858864,0.1513601,-0.106923476,0.44453588,0.25965196,0.13605459,-0.47270536,0.27041587,744.61536,801.8315,807.0696,768.7912,730.10986,100.0,0.0,-0.1539306640625,0.0609130859375,0.99072265625,2.235565185546875,-5.7122802734375,-0.9869384765625,387619.0476190476,116748278.38827838,49918241.75824176,71.72405,1.0,1.0,1.0,1.0,1.0,20.0,,0 days 00:00:00
2023-11-09 13:53:11.865,0.92959034,0.66141593,0.4418105,0.17558742,0.4937605,0.042945016,0.324314,-0.045057435,0.19117488,0.089939006,0.22029375,0.20120814,0.5858864,0.1513601,-0.106923476,0.44453588,0.25965196,0.13605459,-0.47270536,0.27041587,753.8828,803.44324,807.8755,783.2967,854.61536,100.0,0.0,-0.1539306640625,0.0609130859375,0.99072265625,2.235565185546875,-5.7122802734375,-0.9869384765625,387619.0476190476,116748278.38827838,49918241.75824176,71.72405,1.0,1.0,1.0,1.0,1.0,20.0,,0 days 00:00:00.001000
2023-11-09 13:53:11.865,0.92959034,0.66141593,0.4418105,0.17558742,0.4937605,0.042945016,0.324314,-0.045057435,0.19117488,0.089939006,0.22029375,0.20120814,0.5858864,0.1513601,-0.106923476,0.44453588,0.25965196,0.13605459,-0.47270536,0.27041587,756.7033,809.0842,805.8608,793.36993,938.022,100.0,0.0,-0.1539306640625,0.0609130859375,0.99072265625,2.235565185546875,-5.7122802734375,-0.9869384765625,387619.0476190476,116748278.38827838,49918241.75824176,71.72405,1.0,1.0,1.0,1.0,1.0,20.0,,0 days 00:00:00
2023-11-09 13:53:11.866,0.92959034,0.66141593,0.4418105,0.17558742,0.4937605,0.042945016,0.324314,-0.045057435,0.19117488,0.089939006,0.22029375,0.20120814,0.5858864,0.1513601,-0.106923476,0.44453588,0.25965196,0.13605459,-0.47270536,0.27041587,739.7802,805.05493,803.0403,786.52014,760.7326,100.0,0.0,-0.1539306640625,0.0609130859375,0.99072265625,2.235565185546875,-5.7122802734375,-0.9869384765625,387619.0476190476,116748278.38827838,49918241.75824176,71.72405,1.0,1.0,1.0,1.0,1.0,20.0,,0 days 00:00:00.001000
2023-11-09 13:53:11.866,0.92959034,0.66141593,0.4418105,0.17558742,0.4937605,0.042945016,0.324314,-0.045057435,0.19117488,0.089939006,0.22029375,0.20120814,0.5858864,0.1513601,-0.106923476,0.44453588,0.25965196,0.13605459,-0.47270536,0.27041587,743.00366,803.8461,803.8461,781.28204,707.1429,100.0,0.0,-0.1539306640625,0.0609130859375,0.99072265625,2.235565185546875,-5.7122802734375,-0.9869384765625,387619.0476190476,116748278.38827838,49918241.75824176,71.72405,1.0,1.0,1.0,1.0,1.0,20.0,,0 days 00:00:00
2023-11-09 13:53:11.867,0.92959034,0.66141593,0.4418105,0.17558742,0.4937605,0.042945016,0.324314,-0.045057435,0.19117488,0.089939006,0.22029375,0.20120814,0.5858864,0.1513601,-0.106923476,0.44453588,0.25965196,0.13605459,-0.47270536,0.27041587,759.12085,808.68134,803.8461,784.10254,793.7729,100.0,0.0,-0.1539306640625,0.0609130859375,0.99072265625,2.235565185546875,-5.7122802734375,-0.9869384765625,387619.0476190476,116748278.38827838,49918241.75824176,71.72405,1.0,1.0,1.0,1.0,1.0,20.0,,0 days 00:00:00.001000
2023-11-09 13:53:11.898,0.92959034,0.66141593,0.4418105,0.17558742,0.4937605,0.042945016,0.324314,-0.045057435,0.19117488,0.089939006,0.22029375,0.20120814,0.5858864,0.1513601,-0.106923476,0.44453588,0.25965196,0.13605459,-0.47270536,0.27041587,762.74725,806.26373,807.0696,801.02563,979.12085,100.0,0.0,-0.16363525390625,0.0633544921875,0.99420166015625,2.743988037109375,-4.000091552734375,-0.7476806640625,387619.0476190476,116748278.38827838,49918241.75824176,71.72405,1.0,1.0,1.0,1.0,1.0,20.0,,0 days 00:00:00.031000
2023-11-09 13:53:11.899,0.92959034,0.66141593,0.4418105,0.17558742,0.4937605,0.042945016,0.324314,-0.045057435,0.19117488,0.089939006,0.22029375,0.20120814,0.5858864,0.1513601,-0.106923476,0.44453588,0.25965196,0.13605459,-0.47270536,0.27041587,736.9597,803.44324,803.0403,775.64105,933.9927,100.0,0.0,-0.16363525390625,0.0633544921875,0.99420166015625,2.743988037109375,-4.000091552734375,-0.7476806640625,387619.0476190476,116748278.38827838,49918241.75824176,71.72405,1.0,1.0,1.0,1.0,1.0,20.0,,0 days 00:00:00.001000
2023-11-09 13:53:11.900,0.92959034,0.66141593,0.4418105,0.17558742,0.4937605,0.042945016,0.324314,-0.045057435,0.19117488,0.089939006,0.22029375,0.20120814,0.5858864,0.1513601,-0.106923476,0.44453588,0.25965196,0.13605459,-0.47270536,0.27041587,728.49817,806.6667,801.02563,766.77655,779.2674,100.0,0.0,-0.16363525390625,0.0633544921875,0.99420166015625,2.743988037109375,-4.000091552734375,-0.7476806640625,387619.0476190476,116748278.38827838,49918241.75824176,71.72405,1.0,1.0,1.0,1.0,1.0,20.0,,0 days 00:00:00.001000
2023-11-09 13:53:11.900,0.92959034,0.66141593,0.4418105,0.17558742,0.4937605,0.042945016,0.324314,-0.045057435,0.19117488,0.089939006,0.22029375,0.20120814,0.5858864,0.1513601,-0.106923476,0.44453588,0.25965196,0.13605459,-0.47270536,0.27041587,752.27106,805.8608,805.4579,782.0879,811.50183,100.0,0.0,-0.16363525390625,0.0633544921875,0.99420166015625,2.743988037109375,-4.000091552734375,-0.7476806640625,387619.0476190476,116748278.38827838,49918241.75824176,71.72405,1.0,1.0,1.0,1.0,1.0,20.0,,0 days 00:00:00
2023-11-09 13:53:11.901,0.92959034,0.66141593,0.4418105,0.17558742,0.4937605,0.042945016,0.324314,-0.045057435,0.19117488,0.089939006,0.22029375,0.20120814,0.5858864,0.1513601,-0.106923476,0.44453588,0.25965196,0.13605459,-0.47270536,0.27041587,761.13556,796.5934,804.65204,780.4762,809.4872,100.0,0.0,-0.16363525390625,0.0633544921875,0.99420166015625,2.743988037109375,-4.000091552734375,-0.7476806640625,387619.0476190476,116748278.38827838,49918241.75824176,71.72405,1.0,1.0,1.0,1.0,1.0,20.0,,0 days 00:00:00.001000
2023-11-09 13:53:11.901,0.92959034,0.66141593,0.4418105,0.17558742,0.4937605,0.042945016,0.324314,-0.045057435,0.19117488,0.089939006,0.22029375,0.20120814,0.5858864,0.1513601,-0.106923476,0.44453588,0.25965196,0.13605459,-0.47270536,0.27041587,749.0476,790.9524,804.65204,783.69965,778.0586,100.0,0.0,-0.16363525390625,0.0633544921875,0.99420166015625,2.743988037109375,-4.000091552734375,-0.7476806640625,387619.0476190476,116748278.38827838,49918241.75824176,71.72405,1.0,1.0,1.0,1.0,1.0,20.0,,0 days 00:00:00
2023-11-09 13:53:11.901,0.92959034,0.66141593,0.4418105,0.17558742,0.4937605,0.042945016,0.324314,-0.045057435,0.19117488,0.089939006,0.22029375,0.20120814,0.5858864,0.1513601,-0.106923476,0.44453588,0.25965196,0.13605459,-0.47270536,0.27041587,733.73627,796.5934,802.6374,784.10254,820.3663,100.0,0.0,-0.16363525390625,0.0633544921875,0.99420166015625,2.743988037109375,-4.000091552734375,-0.7476806640625,387619.0476190476,116748278.38827838,49918241.75824176,71.72405,1.0,1.0,1.0,1.0,1.0,20.0,,0 days 00:00:00
2023-11-09 13:53:11.902,0.92959034,0.66141593,0.3351233,0.17558742,0.4937605,0.042945016,0.13856915,-0.045057435,0.19117488,0.089939006,0.06383562,0.20120814,0.5858864,0.1513601,-0.17111588,0.44453588,0.25965196,0.13605459,-0.4814153,0.27041587,740.58606,793.36993,803.0403,799.41394,978.315,100.0,0.0,-0.16363525390625,0.0633544921875,0.99420166015625,2.743988037109375,-4.000091552734375,-0.7476806640625,387619.0476190476,116748278.38827838,49918241.75824176,71.72405,1.0,1.0,1.0,1.0,1.0,20.0,,0 days 00:00:00.001000
2023-11-09 13:53:11.903,0.92959034,0.66141593,0.3351233,0.17558742,0.4937605,0.042945016,0.13856915,-0.045057435,0.19117488,0.089939006,0.06383562,0.20120814,0.5858864,0.1513601,-0.17111588,0.44453588,0.25965196,0.13605459,-0.4814153,0.27041587,754.68866,793.7729,805.4579,806.6667,1170.1099,100.0,0.0,-0.16363525390625,0.0633544921875,0.99420166015625,2.743988037109375,-4.000091552734375,-0.7476806640625,387619.0476190476,116748278.38827838,49918241.75824176,71.72405,1.0,1.0,1.0,1.0,1.0,20.0,,0 days 00:00:00.001000
2023-11-09 13:53:11.904,0.92959034,0.66141593,0.3351233,0.17558742,0.4937605,0.042945016,0.13856915,-0.045057435,0.19117488,0.089939006,0.06383562,0.20120814,0.5858864,0.1513601,-0.17111588,0.44453588,0.25965196,0.13605459,-0.4814153,0.27041587,740.18317,800.6227,800.2198,768.7912,961.79486,100.0,0.0,-0.16363525390625,0.0633544921875,0.99420166015625,2.743988037109375,-4.000091552734375,-0.7476806640625,387619.0476190476,116748278.38827838,49918241.75824176,71.72405,1.0,1.0,1.0,1.0,1.0,20.0,,0 days 00:00:00.001000
2023-11-09 13:53:11.904,0.92959034,0.66141593,0.3351233,0.17558742,0.4937605,0.042945016,0.13856915,-0.045057435,0.19117488,0.089939006,0.06383562,0.20120814,0.5858864,0.1513601,-0.17111588,0.44453588,0.25965196,0.13605459,-0.4814153,0.27041587,713.9927,797.8022,801.02563,761.13556,868.71796,100.0,0.0,-0.16363525390625,0.0633544921875,0.99420166015625,2.743988037109375,-4.000091552734375,-0.7476806640625,387619.0476190476,116748278.38827838,49918241.75824176,71.72405,1.0,1.0,1.0,1.0,1.0,20.0,,0 days 00:00:00
2023-11-09 13:53:11.905,0.92959034,0.66141593,0.3351233,0.17558742,0.4937605,0.042945016,0.13856915,-0.045057435,0.19117488,0.089939006,0.06383562,0.20120814,0.5858864,0.1513601,-0.17111588,0.44453588,0.25965196,0.13605459,-0.4814153,0.27041587,720.84247,795.78754,803.44324,781.28204,972.27106,100.0,0.0,-0.16363525390625,0.0633544921875,0.99420166015625,2.743988037109375,-4.000091552734375,-0.7476806640625,387619.0476190476,116748278.38827838,49918241.75824176,71.72405,1.0,1.0,1.0,1.0,1.0,20.0,,0 days 00:00:00.001000
2023-11-09 13:53:11.946,0.92959034,0.66141593,0.3351233,0.17558742,0.4937605,0.042945016,0.13856915,-0.045057435,0.19117488,0.089939006,0.06383562,0.20120814,0.5858864,0.1513601,-0.17111588,0.44453588,0.25965196,0.13605459,-0.4814153,0.27041587,726.4835,792.5641,800.6227,768.7912,844.94507,100.0,0.0,-0.1636962890625,0.07037353515625,0.98785400390625,3.18511962890625,-2.818756103515625,0.186920166015625,388424.9084249084,116815970.6959707,49960952.38095238,71.72405,1.0,1.0,1.0,1.0,1.0,20.0,,0 days 00:00:00.041000
2023-11-09 13:53:11.947,0.92959034,0.66141593,0.3351233,0.17558742,0.4937605,0.042945016,0.13856915,-0.045057435,0.19117488,0.089939006,0.06383562,0.20120814,0.5858864,0.1513601,-0.17111588,0.44453588,0.25965196,0.13605459,-0.4814153,0.27041587,716.8132,793.36993,803.8461,767.5824,795.78754,100.0,0.0,-0.1636962890625,0.07037353515625,0.98785400390625,3.18511962890625,-2.818756103515625,0.186920166015625,388424.9084249084,116815970.6959707,49960952.38095238,71.72405,1.0,1.0,1.0,1.0,1.0,20.0,,0 days 00:00:00.001000
2023-11-09 13:53:11.948,0.92959034,0.66141593,0.3351233,0.17558742,0.4937605,0.042945016,0.13856915,-0.045057435,0.19117488,0.089939006,0.06383562,0.20120814,0.5858864,0.1513601,-0.17111588,0.44453588,0.25965196,0.13605459,-0.4814153,0.27041587,719.6337,802.23444,811.50183,778.46155,785.31134,100.0,0.0,-0.1636962890625,0.07037353515625,0.98785400390625,3.18511962890625,-2.818756103515625,0.186920166015625,388424.9084249084,116815970.6959707,49960952.38095238,71.72405,1.0,1.0,1.0,1.0,1.0,20.0,,0 days 00:00:00.001000
2023-11-09 13:53:11.948,0.92959034,0.66141593,0.3351233,0.17558742,0.4937605,0.042945016,0.13856915,-0.045057435,0.19117488,0.089939006,0.06383562,0.20120814,0.5858864,0.1513601,-0.17111588,0.44453588,0.25965196,0.13605459,-0.4814153,0.27041587,724.0659,805.4579,810.696,774.0293,713.5897,100.0,0.0,-0.1636962890625,0.07037353515625,0.98785400390625,3.18511962890625,-2.818756103515625,0.186920166015625,388424.9084249084,116815970.6959707,49960952.38095238,71.72405,1.0,1.0,1.0,1.0,1.0,20.0,,0 days 00:00:00
2023-11-09 13:53:11.949,0.92959034,0.66141593,0.3351233,0.17558742,0.4937605,0.042945016,0.13856915,-0.045057435,0.19117488,0.089939006,0.06383562,0.20120814,0.5858864,0.1513601,-0.17111588,0.44453588,0.25965196,0.13605459,-0.4814153,0.27041587,738.5714,799.81683,806.26373,774.83514,681.3553,100.0,0.0,-0.1636962890625,0.07037353515625,0.98785400390625,3.18511962890625,-2.818756103515625,0.186920166015625,388424.9084249084,116815970.6959707,49960952.38095238,71.72405,1.0,1.0,1.0,1.0,1.0,20.0,,0 days 00:00:00.001000
2023-11-09 13:53:11.949,0.92959034,0.66141593,0.3351233,0.17558742,0.4937605,0.042945016,0.13856915,-0.045057435,0.19117488,0.089939006,0.06383562,0.20120814,0.5858864,0.1513601,-0.17111588,0.44453588,0.25965196,0.13605459,-0.4814153,0.27041587,739.3773,793.7729,805.8608,774.83514,775.2381,100.0,0.0,-0.1636962890625,0.07037353515625,0.98785400390625,3.18511962890625,-2.818756103515625,0.186920166015625,388424.9084249084,116815970.6959707,49960952.38095238,71.72405,1.0,1.0,1.0,1.0,1.0,20.0,,0 days 00:00:00
2023-11-09 13:53:11.950,0.92959034,0.66141593,0.3351233,0.17558742,0.4937605,0.042945016,0.13856915,-0.045057435,0.19117488,0.089939006,0.06383562,0.20120814,0.5858864,0.1513601,-0.17111588,0.44453588,0.25965196,0.13605459,-0.4814153,0.27041587,729.304,792.1612,807.0696,777.6557,880.0,100.0,0.0,-0.1636962890625,0.07037353515625,0.98785400390625,3.18511962890625,-2.818756103515625,0.186920166015625,388424.9084249084,116815970.6959707,49960952.38095238,71.72405,1.0,1.0,1.0,1.0,1.0,20.0,,0 days 00:00:00.001000
2023-11-09 13:53:11.950,0.92959034,0.66141593,0.3351233,0.17558742,0.4937605,0.042945016,0.13856915,-0.045057435,0.19117488,0.089939006,0.06383562,0.20120814,0.5858864,0.1513601,-0.17111588,0.44453588,0.25965196,0.13605459,-0.4814153,0.27041587,729.304,799.011,809.89014,791.3553,992.01465,100.0,0.0,-0.1636962890625,0.07037353515625,0.98785400390625,3.18511962890625,-2.818756103515625,0.186920166015625,388424.9084249084,116815970.6959707,49960952.38095238,71.72405,1.0,1.0,1.0,1.0,1.0,20.0,,0 days 00:00:00
2023-11-09 13:53:11.951,0.92959034,0.66141593,0.3351233,0.17558742,0.4937605,0.042945016,0.13856915,-0.045057435,0.19117488,0.089939006,0.06383562,0.20120814,0.5858864,0.1513601,-0.17111588,0.44453588,0.25965196,0.13605459,-0.4814153,0.27041587,726.08057,804.2491,809.4872,782.49084,844.94507,100.0,0.0,-0.1636962890625,0.07037353515625,0.98785400390625,3.18511962890625,-2.818756103515625,0.186920166015625,388424.9084249084,116815970.6959707,49960952.38095238,71.72405,1.0,1.0,1.0,1.0,1.0,20.0,,0 days 00:00:00.001000
2023-11-09 13:53:11.951,0.92959034,0.66141593,0.3351233,0.17558742,0.4937605,0.042945016,0.13856915,-0.045057435,0.19117488,0.089939006,0.06383562,0.20120814,0.5858864,0.1513601,-0.17111588,0.44453588,0.25965196,0.13605459,-0.4814153,0.27041587,729.304,805.8608,805.4579,775.2381,684.57874,100.0,0.0,-0.1636962890625,0.07037353515625,0.98785400390625,3.18511962890625,-2.818756103515625,0.186920166015625,388424.9084249084,116815970.6959707,49960952.38095238,71.72405,1.0,1.0,1.0,1.0,1.0,20.0,,0 days 00:00:00
2023-11-09 13:53:11.951,0.92959034,0.66141593,0.3351233,0.17558742,0.4937605,0.042945016,0.13856915,-0.045057435,0.19117488,0.089939006,0.06383562,0.20120814,0.5858864,0.1513601,-0.17111588,0.44453588,0.25965196,0.13605459,-0.4814153,0.27041587,731.7216,804.2491,804.2491,784.90845,765.56775,100.0,0.0,-0.1636962890625,0.07037353515625,0.98785400390625,3.18511962890625,-2.818756103515625,0.186920166015625,388424.9084249084,116815970.6959707,49960952.38095238,71.72405,1.0,1.0,1.0,1.0,1.0,20.0,,0 days 00:00:00
2023-11-09 13:53:11.952,0.92959034,0.66141593,0.3351233,0.17558742,0.4937605,0.042945016,0.13856915,-0.045057435,0.19117488,0.089939006,0.06383562,0.20120814,0.5858864,0.1513601,-0.17111588,0.44453588,0.25965196,0.13605459,-0.4814153,0.27041587,719.2308,803.8461,807.47253,786.1172,843.3333,100.0,0.0,-0.1636962890625,0.07037353515625,0.98785400390625,3.18511962890625,-2.818756103515625,0.186920166015625,388424.9084249084,116815970.6959707,49960952.38095238,71.72405,1.0,1.0,1.0,1.0,1.0,20.0,,0 days 00:00:00.001000
2023-11-09 13:53:11.989,0.92959034,0.66141593,0.3351233,0.17558742,0.4937605,0.042945016,0.13856915,-0.045057435,0.19117488,0.089939006,0.06383562,0.20120814,0.5858864,0.1513601,-0.17111588,0.44453588,0.25965196,0.13605459,-0.4814153,0.27041587,723.663,809.4872,809.89014,778.86444,795.38464,100.0,0.0,-0.1649169921875,0.07525634765625,0.99188232421875,3.671112060546875,-4.822540283203125,1.054229736328125,388424.9084249084,116815970.6959707,49960952.38095238,71.72405,1.0,1.0,1.0,1.0,1.0,20.0,,0 days 00:00:00.037000
2023-11-09 13:53:11.990,0.92959034,0.66141593,0.3351233,0.17558742,0.4937605,0.042945016,0.13856915,-0.045057435,0.19117488,0.089939006,0.06383562,0.20120814,0.5858864,0.1513601,-0.17111588,0.44453588,0.25965196,0.13605459,-0.4814153,0.27041587,735.34796,815.12823,811.0989,784.5055,736.55676,100.0,0.0,-0.1649169921875,0.07525634765625,0.99188232421875,3.671112060546875,-4.822540283203125,1.054229736328125,388424.9084249084,116815970.6959707,49960952.38095238,71.72405,1.0,1.0,1.0,1.0,1.0,20.0,,0 days 00:00:00.001000
2023-11-09 13:53:11.990,0.92959034,0.66141593,0.3351233,0.17558742,0.4937605,0.042945016,0.13856915,-0.045057435,0.19117488,0.089939006,0.06383562,0.20120814,0.5858864,0.1513601,-0.17111588,0.44453588,0.25965196,0.13605459,-0.4814153,0.27041587,732.1245,809.0842,810.696,794.9817,767.5824,100.0,0.0,-0.1649169921875,0.07525634765625,0.99188232421875,3.671112060546875,-4.822540283203125,1.054229736328125,388424.9084249084,116815970.6959707,49960952.38095238,71.72405,1.0,1.0,1.0,1.0,1.0,20.0,,0 days 00:00:00
2023-11-09 13:53:11.991,0.92959034,0.66141593,0.3351233,0.17558742,0.4937605,0.042945016,0.13856915,-0.045057435,0.19117488,0.089939006,0.06383562,0.20120814,0.5858864,0.1513601,-0.17111588,0.44453588,0.25965196,0.13605459,-0.4814153,0.27041587,723.663,804.65204,809.89014,787.72894,785.7143,100.0,0.0,-0.1649169921875,0.07525634765625,0.99188232421875,3.671112060546875,-4.822540283203125,1.054229736328125,388424.9084249084,116815970.6959707,49960952.38095238,71.72405,1.0,1.0,1.0,1.0,1.0,20.0,,0 days 00:00:00.001000
2023-11-09 13:53:11.992,0.92959034,0.66141593,0.3351233,0.17558742,0.4937605,0.042945016,0.13856915,-0.045057435,0.19117488,0.089939006,0.06383562,0.20120814,0.5858864,0.1513601,-0.17111588,0.44453588,0.25965196,0.13605459,-0.4814153,0.27041587,724.4689,809.4872,813.91943,785.7143,724.87177,100.0,0.0,-0.1649169921875,0.07525634765625,0.99188232421875,3.671112060546875,-4.822540283203125,1.054229736328125,388424.9084249084,116815970.6959707,49960952.38095238,71.72405,1.0,1.0,1.0,1.0,1.0,20.0,,0 days 00:00:00.001000
2023-11-09 13:53:11.992,0.92959034,0.66141593,0.3351233,0.17558742,0.4937605,0.042945016,0.13856915,-0.045057435,0.19117488,0.089939006,0.06383562,0.20120814,0.5858864,0.1513601,-0.17111588,0.44453588,0.25965196,0.13605459,-0.4814153,0.27041587,724.87177,805.4579,810.696,789.34064,696.6667,100.0,0.0,-0.1649169921875,0.07525634765625,0.99188232421875,3.671112060546875,-4.822540283203125,1.054229736328125,388424.9084249084,116815970.6959707,49960952.38095238,71.72405,1.0,1.0,1.0,1.0,1.0,20.0,,0 days 00:00:00
2023-11-09 13:53:11.993,0.92959034,0.66141593,0.3351233,0.17558742,0.4937605,0.042945016,0.13856915,-0.045057435,0.19117488,0.089939006,0.06383562,0.20120814,0.5858864,0.1513601,-0.17111588,0.44453588,0.25965196,0.13605459,-0.4814153,0.27041587,732.52747,796.5934,809.0842,792.1612,915.05493,100.0,0.0,-0.1649169921875,0.07525634765625,0.99188232421875,3.671112060546875,-4.822540283203125,1.054229736328125,388424.9084249084,116815970.6959707,49960952.38095238,71.72405,1.0,1.0,1.0,1.0,1.0,20.0,,0 days 00:00:00.001000
2023-11-09 13:53:11.993,0.92959034,0.66141593,0.3351233,0.17558742,0.4937605,0.042945016,0.13856915,-0.045057435,0.19117488,0.089939006,0.06383562,0.20120814,0.5858864,0.1513601,-0.17111588,0.44453588,0.25965196,0.13605459,-0.4814153,0.27041587,738.5714,802.23444,813.5165,796.1905,1137.4725,100.0,0.0,-0.1649169921875,0.07525634765625,0.99188232421875,3.671112060546875,-4.822540283203125,1.054229736328125,388424.9084249084,116815970.6959707,49960952.38095238,71.72405,1.0,1.0,1.0,1.0,1.0,20.0,,0 days 00:00:00
2023-11-09 13:53:11.994,0.92959034,0.66141593,0.3351233,0.17558742,0.4937605,0.042945016,0.13856915,-0.045057435,0.19117488,0.089939006,0.06383562,0.20120814,0.5858864,0.1513601,-0.17111588,0.44453588,0.25965196,0.13605459,-0.4814153,0.27041587,732.1245,805.05493,805.05493,775.64105,846.9597,100.0,0.0,-0.1649169921875,0.07525634765625,0.99188232421875,3.671112060546875,-4.822540283203125,1.054229736328125,388424.9084249084,116815970.6959707,49960952.38095238,71.72405,1.0,1.0,1.0,1.0,1.0,20.0,,0 days 00:00:00.001000
2023-11-09 13:53:11.994,0.92959034,0.66141593,0.26230735,0.17558742,0.4937605,0.042945016,-0.11581499,-0.045057435,0.19117488,0.089939006,-0.11441435,0.20120814,0.5858864,0.1513601,-0.21782035,0.44453588,0.25965196,0.13605459,-0.5163469,0.27041587,733.73627,805.05493,806.26373,775.64105,761.9414,100.0,0.0,-0.1649169921875,0.07525634765625,0.99188232421875,3.671112060546875,-4.822540283203125,1.054229736328125,388424.9084249084,116815970.6959707,49960952.38095238,71.72405,1.0,1.0,1.0,1.0,1.0,20.0,,0 days 00:00:00
2023-11-09 13:53:11.998,0.92959034,0.66141593,0.26230735,0.17558742,0.4937605,0.042945016,-0.11581499,-0.045057435,0.19117488,0.089939006,-0.11441435,0.20120814,0.5858864,0.1513601,-0.21782035,0.44453588,0.25965196,0.13605459,-0.5163469,0.27041587,742.6007,811.50183,808.68134,782.8938,856.63007,100.0,0.0,-0.1649169921875,0.07525634765625,0.99188232421875,3.671112060546875,-4.822540283203125,1.054229736328125,388424.9084249084,116815970.6959707,49960952.38095238,71.72405,1.0,1.0,1.0,1.0,1.0,20.0,,0 days 00:00:00.004000
2023-11-09 13:53:11.998,0.92959034,0.66141593,0.26230735,0.17558742,0.4937605,0.042945016,-0.11581499,-0.045057435,0.19117488,0.089939006,-0.11441435,0.20120814,0.5858864,0.1513601,-0.21782035,0.44453588,0.25965196,0.13605459,-0.5163469,0.27041587,743.00366,809.89014,805.05493,776.8498,770.40295,100.0,0.0,-0.1649169921875,0.07525634765625,0.99188232421875,3.671112060546875,-4.822540283203125,1.054229736328125,388424.9084249084,116815970.6959707,49960952.38095238,71.72405,1.0,1.0,1.0,1.0,1.0,20.0,,0 days 00:00:00
2023-11-09 13:53:12.030,0.92959034,0.66141593,0.26230735,0.17558742,0.4937605,0.042945016,-0.11581499,-0.045057435,0.19117488,0.089939006,-0.11441435,0.20120814,0.5858864,0.1513601,-0.21782035,0.44453588,0.25965196,0.13605459,-0.5163469,0.27041587,725.2747,805.8608,811.0989,783.2967,738.97437,100.0,0.0,-0.1649169921875,0.07525634765625,0.99188232421875,3.671112060546875,-4.822540283203125,1.054229736328125,387619.0476190476,116865128.2051282,49971428.57142857,71.72405,1.0,1.0,1.0,1.0,1.0,20.0,,0 days 00:00:00.032000
2023-11-09 13:53:12.031,0.92959034,0.66141593,0.26230735,0.17558742,0.4937605,0.042945016,-0.11581499,-0.045057435,0.19117488,0.089939006,-0.11441435,0.20120814,0.5858864,0.1513601,-0.21782035,0.44453588,0.25965196,0.13605459,-0.5163469,0.27041587,724.0659,804.2491,812.3077,782.8938,791.75824,100.0,0.0,-0.1649169921875,0.07525634765625,0.99188232421875,3.671112060546875,-4.822540283203125,1.054229736328125,387619.0476190476,116865128.2051282,49971428.57142857,71.72405,1.0,1.0,1.0,1.0,1.0,20.0,,0 days 00:00:00.001000
2023-11-09 13:53:12.032,0.92959034,0.66141593,0.26230735,0.17558742,0.4937605,0.042945016,-0.11581499,-0.045057435,0.19117488,0.089939006,-0.11441435,0.20120814,0.5858864,0.1513601,-0.21782035,0.44453588,0.25965196,0.13605459,-0.5163469,0.27041587,729.707,805.4579,809.4872,783.2967,878.3883,100.0,0.0,-0.1649169921875,0.07525634765625,0.99188232421875,3.671112060546875,-4.822540283203125,1.054229736328125,387619.0476190476,116865128.2051282,49971428.57142857,71.72405,1.0,1.0,1.0,1.0,1.0,20.0,,0 days 00:00:00.001000
2023-11-09 13:53:12.032,0.92959034,0.66141593,0.26230735,0.17558742,0.4937605,0.042945016,-0.11581499,-0.045057435,0.19117488,0.089939006,-0.11441435,0.20120814,0.5858864,0.1513601,-0.21782035,0.44453588,0.25965196,0.13605459,-0.5163469,0.27041587,719.2308,799.41394,810.696,789.34064,795.78754,100.0,0.0,-0.1649169921875,0.07525634765625,0.99188232421875,3.671112060546875,-4.822540283203125,1.054229736328125,387619.0476190476,116865128.2051282,49971428.57142857,71.72405,1.0,1.0,1.0,1.0,1.0,20.0,,0 days 00:00:00
2023-11-09 13:53:12.032,0.92959034,0.66141593,0.26230735,0.17558742,0.4937605,0.042945016,-0.11581499,-0.045057435,0.19117488,0.089939006,-0.11441435,0.20120814,0.5858864,0.1513601,-0.21782035,0.44453588,0.25965196,0.13605459,-0.5163469,0.27041587,715.2015,804.65204,811.9048,784.90845,740.18317,100.0,0.0,-0.1649169921875,0.07525634765625,0.99188232421875,3.671112060546875,-4.822540283203125,1.054229736328125,387619.0476190476,116865128.2051282,49971428.57142857,71.72405,1.0,1.0,1.0,1.0,1.0,20.0,,0 days 00:00:00
2023-11-09 13:53:12.033,0.92959034,0.66141593,0.26230735,0.17558742,0.4937605,0.042945016,-0.11581499,-0.045057435,0.19117488,0.089939006,-0.11441435,0.20120814,0.5858864,0.1513601,-0.21782035,0.44453588,0.25965196,0.13605459,-0.5163469,0.27041587,728.0952,817.5458,812.71063,789.7436,818.3516,100.0,0.0,-0.1649169921875,0.07525634765625,0.99188232421875,3.671112060546875,-4.822540283203125,1.054229736328125,387619.0476190476,116865128.2051282,49971428.57142857,71.72405,1.0,1.0,1.0,1.0,1.0,20.0,,0 days 00:00:00.001000
2023-11-09 13:53:12.033,0.92959034,0.66141593,0.26230735,0.17558742,0.4937605,0.042945016,-0.11581499,-0.045057435,0.19117488,0.089939006,-0.11441435,0.20120814,0.5858864,0.1513601,-0.21782035,0.44453588,0.25965196,0.13605459,-0.5163469,0.27041587,745.42126,812.71063,812.71063,797.8022,916.6667,100.0,0.0,-0.1649169921875,0.07525634765625,0.99188232421875,3.671112060546875,-4.822540283203125,1.054229736328125,387619.0476190476,116865128.2051282,49971428.57142857,71.72405,1.0,1.0,1.0,1.0,1.0,20.0,,0 days 00:00:00
2023-11-09 13:53:12.033,0.92959034,0.66141593,0.26230735,0.17558742,0.4937605,0.042945016,-0.11581499,-0.045057435,0.19117488,0.089939006,-0.11441435,0.20120814,0.5858864,0.1513601,-0.21782035,0.44453588,0.25965196,0.13605459,-0.5163469,0.27041587,747.4359,801.02563,809.89014,789.34064,840.5128,100.0,0.0,-0.1649169921875,0.07525634765625,0.99188232421875,3.671112060546875,-4.822540283203125,1.054229736328125,387619.0476190476,116865128.2051282,49971428.57142857,71.72405,1.0,1.0,1.0,1.0,1.0,20.0,,0 days 00:00:00
2023-11-09 13:53:12.033,0.92959034,0.66141593,0.26230735,0.17558742,0.4937605,0.042945016,-0.11581499,-0.045057435,0.19117488,0.089939006,-0.11441435,0.20120814,0.5858864,0.1513601,-0.21782035,0.44453588,0.25965196,0.13605459,-0.5163469,0.27041587,732.52747,796.99634,807.47253,772.8205,734.94507,100.0,0.0,-0.1649169921875,0.07525634765625,0.99188232421875,3.671112060546875,-4.822540283203125,1.054229736328125,387619.0476190476,116865128.2051282,49971428.57142857,71.72405,1.0,1.0,1.0,1.0,1.0,20.0,,0 days 00:00:00
2023-11-09 13:53:12.033,0.92959034,0.66141593,0.26230735,0.17558742,0.4937605,0.042945016,-0.11581499,-0.045057435,0.19117488,0.089939006,-0.11441435,0.20120814,0.5858864,0.1513601,-0.21782035,0.44453588,0.25965196,0.13605459,-0.5163469,0.27041587,727.6923,799.011,808.68134,780.07324,782.8938,100.0,0.0,-0.1649169921875,0.07525634765625,0.99188232421875,3.671112060546875,-4.822540283203125,1.054229736328125,387619.0476190476,116865128.2051282,49971428.57142857,71.72405,1.0,1.0,1.0,1.0,1.0,20.0,,0 days 00:00:00
2023-11-09 13:53:12.034,0.92959034,0.66141593,0.26230735,0.17558742,0.4937605,0.042945016,-0.11581499,-0.045057435,0.19117488,0.089939006,-0.11441435,0.20120814,0.5858864,0.1513601,-0.21782035,0.44453588,0.25965196,0.13605459,-0.5163469,0.27041587,740.58606,801.8315,813.5165,795.78754,940.4396,100.0,0.0,-0.1649169921875,0.07525634765625,0.99188232421875,3.671112060546875,-4.822540283203125,1.054229736328125,387619.0476190476,116865128.2051282,49971428.57142857,71.72405,1.0,1.0,1.0,1.0,1.0,20.0,,0 days 00:00:00.001000
2023-11-09 13:53:12.034,0.92959034,0.66141593,0.26230735,0.17558742,0.4937605,0.042945016,-0.11581499,-0.045057435,0.19117488,0.089939006,-0.11441435,0.20120814,0.5858864,0.1513601,-0.21782035,0.44453588,0.25965196,0.13605459,-0.5163469,0.27041587,753.47986,796.99634,815.5311,796.99634,816.7399,100.0,0.0,-0.1649169921875,0.07525634765625,0.99188232421875,3.671112060546875,-4.822540283203125,1.054229736328125,387619.0476190476,116865128.2051282,49971428.57142857,71.72405,1.0,1.0,1.0,1.0,1.0,20.0,,0 days 00:00:00
2023-11-09 13:53:12.098,0.92959034,0.66141593,0.26230735,0.17558742,0.4937605,0.042945016,-0.11581499,-0.045057435,0.19117488,0.089939006,-0.11441435,0.20120814,0.5858864,0.1513601,-0.21782035,0.44453588,0.25965196,0.13605459,-0.5163469,0.27041587,752.27106,801.02563,815.12823,796.5934,733.3333,100.0,0.0,-0.16485595703125,0.08013916015625,0.990966796875,3.207550048828125,-5.27862548828125,1.188812255859375,387619.0476190476,116865128.2051282,49971428.57142857,71.72405,1.0,1.0,1.0,1.0,1.0,20.0,,0 days 00:00:00.064000
2023-11-09 13:53:12.098,0.92959034,0.66141593,0.26230735,0.17558742,0.4937605,0.042945016,-0.11581499,-0.045057435,0.19117488,0.089939006,-0.11441435,0.20120814,0.5858864,0.1513601,-0.21782035,0.44453588,0.25965196,0.13605459,-0.5163469,0.27041587,733.73627,809.4872,811.0989,789.7436,808.68134,100.0,0.0,-0.16485595703125,0.08013916015625,0.990966796875,3.207550048828125,-5.27862548828125,1.188812255859375,387619.0476190476,116865128.2051282,49971428.57142857,71.72405,1.0,1.0,1.0,1.0,1.0,20.0,,0 days 00:00:00
2023-11-09 13:53:12.099,0.92959034,0.66141593,0.26230735,0.17558742,0.4937605,0.042945016,-0.11581499,-0.045057435,0.19117488,0.089939006,-0.11441435,0.20120814,0.5858864,0.1513601,-0.21782035,0.44453588,0.25965196,0.13605459,-0.5163469,0.27041587,734.94507,807.8755,807.47253,784.5055,802.6374,100.0,0.0,-0.16485595703125,0.08013916015625,0.990966796875,3.207550048828125,-5.27862548828125,1.188812255859375,387619.0476190476,116865128.2051282,49971428.57142857,71.72405,1.0,1.0,1.0,1.0,1.0,20.0,,0 days 00:00:00.001000
2023-11-09 13:53:12.100,0.92959034,0.66141593,0.26230735,0.17558742,0.4937605,0.042945016,-0.11581499,-0.045057435,0.19117488,0.089939006,-0.11441435,0.20120814,0.5858864,0.1513601,-0.21782035,0.44453588,0.25965196,0.13605459,-0.5163469,0.27041587,756.7033,810.696,806.6667,784.5055,741.79486,100.0,0.0,-0.16485595703125,0.08013916015625,0.990966796875,3.207550048828125,-5.27862548828125,1.188812255859375,387619.0476190476,116865128.2051282,49971428.57142857,71.72405,1.0,1.0,1.0,1.0,1.0,20.0,,0 days 00:00:00.001000
2023-11-09 13:53:12.100,0.92959034,0.66141593,0.26230735,0.17558742,0.4937605,0.042945016,-0.11581499,-0.045057435,0.19117488,0.089939006,-0.11441435,0.20120814,0.5858864,0.1513601,-0.21782035,0.44453588,0.25965196,0.13605459,-0.5163469,0.27041587,766.77655,817.1429,808.2784,785.7143,770.80585,100.0,0.0,-0.16485595703125,0.08013916015625,0.990966796875,3.207550048828125,-5.27862548828125,1.188812255859375,387619.0476190476,116865128.2051282,49971428.57142857,71.72405,1.0,1.0,1.0,1.0,1.0,20.0,,0 days 00:00:00
2023-11-09 13:53:12.101,0.92959034,0.66141593,0.26230735,0.17558742,0.4937605,0.042945016,-0.11581499,-0.045057435,0.19117488,0.089939006,-0.11441435,0.20120814,0.5858864,0.1513601,-0.21782035,0.44453588,0.25965196,0.13605459,-0.5163469,0.27041587,755.89746,814.3223,808.68134,792.5641,889.67035,100.0,0.0,-0.16485595703125,0.08013916015625,0.990966796875,3.207550048828125,-5.27862548828125,1.188812255859375,387619.0476190476,116865128.2051282,49971428.57142857,71.72405,1.0,1.0,1.0,1.0,1.0,20.0,,0 days 00:00:00.001000
2023-11-09 13:53:12.101,0.92959034,0.66141593,0.26230735,0.17558742,0.4937605,0.042945016,-0.11581499,-0.045057435,0.19117488,0.089939006,-0.11441435,0.20120814,0.5858864,0.1513601,-0.21782035,0.44453588,0.25965196,0.13605459,-0.5163469,0.27041587,748.24176,811.50183,809.4872,797.8022,834.0659,100.0,0.0,-0.16485595703125,0.08013916015625,0.990966796875,3.207550048828125,-5.27862548828125,1.188812255859375,387619.0476190476,116865128.2051282,49971428.57142857,71.72405,1.0,1.0,1.0,1.0,1.0,20.0,,0 days 00:00:00
2023-11-09 13:53:12.102,0.92959034,0.66141593,0.26230735,0.17558742,0.4937605,0.042945016,-0.11581499,-0.045057435,0.19117488,0.089939006,-0.11441435,0.20120814,0.5858864,0.1513601,-0.21782035,0.44453588,0.25965196,0.13605459,-0.5163469,0.27041587,750.65936,805.4579,811.0989,785.7143,734.5421,100.0,0.0,-0.16485595703125,0.08013916015625,0.990966796875,3.207550048828125,-5.27862548828125,1.188812255859375,387619.0476190476,116865128.2051282,49971428.57142857,71.72405,1.0,1.0,1.0,1.0,1.0,20.0,,0 days 00:00:00.001000
2023-11-09 13:53:12.102,0.92959034,0.66141593,0.26230735,0.17558742,0.4937605,0.042945016,-0.11581499,-0.045057435,0.19117488,0.089939006,-0.11441435,0.20120814,0.5858864,0.1513601,-0.21782035,0.44453588,0.25965196,0.13605459,-0.5163469,0.27041587,747.8388,797.3993,806.6667,778.0586,776.4469,100.0,0.0,-0.16485595703125,0.08013916015625,0.990966796875,3.207550048828125,-5.27862548828125,1.188812255859375,387619.0476190476,116865128.2051282,49971428.57142857,71.72405,1.0,1.0,1.0,1.0,1.0,20.0,,0 days 00:00:00
2023-11-09 13:53:12.103,0.92959034,0.66141593,0.26230735,0.17558742,0.4937605,0.042945016,-0.11581499,-0.045057435,0.19117488,0.089939006,-0.11441435,0.20120814,0.5858864,0.1513601,-0.21782035,0.44453588,0.25965196,0.13605459,-0.5163469,0.27041587,744.21246,805.05493,808.2784,801.8315,932.381,100.0,0.0,-0.16485595703125,0.08013916015625,0.990966796875,3.207550048828125,-5.27862548828125,1.188812255859375,387619.0476190476,116865128.2051282,49971428.57142857,71.72405,1.0,1.0,1.0,1.0,1.0,20.0,,0 days 00:00:00.001000
2023-11-09 13:53:12.103,0.92959034,0.66141593,0.26230735,0.17558742,0.4937605,0.042945016,-0.11581499,-0.045057435,0.19117488,0.089939006,-0.11441435,0.20120814,0.5858864,0.1513601,-0.21782035,0.44453588,0.25965196,0.13605459,-0.5163469,0.27041587,754.68866,806.6667,811.9048,813.91943,1042.7839,100.0,0.0,-0.16485595703125,0.08013916015625,0.990966796875,3.207550048828125,-5.27862548828125,1.188812255859375,387619.0476190476,116865128.2051282,49971428.57142857,71.72405,1.0,1.0,1.0,1.0,1.0,20.0,,0 days 00:00:00
2023-11-09 13:53:12.103,0.92959034,0.3993956,-0.4188302,0.17558742,0.4937605,-0.4839212,-0.48457068,-0.045057435,0.19117488,-0.0053005316,-0.35163304,0.20120814,0.5858864,0.2739936,-0.22756177,0.44453588,0.25965196,-0.16148992,-0.5775483,0.27041587,757.1062,803.0403,807.0696,783.69965,782.49084,100.0,0.0,-0.16485595703125,0.08013916015625,0.990966796875,3.207550048828125,-5.27862548828125,1.188812255859375,387619.0476190476,116865128.2051282,49971428.57142857,71.72405,1.0,1.0,1.0,1.0,1.0,20.0,,0 days 00:00:00
2023-11-09 13:53:12.142,0.92959034,0.3993956,-0.4188302,0.17558742,0.4937605,-0.4839212,-0.48457068,-0.045057435,0.19117488,-0.0053005316,-0.35163304,0.20120814,0.5858864,0.2739936,-0.22756177,0.44453588,0.25965196,-0.16148992,-0.5775483,0.27041587,753.47986,807.0696,809.0842,778.46155,683.36993,100.0,0.0,-0.169189453125,0.0810546875,0.995361328125,2.340240478515625,-3.2598876953125,0.485992431640625,388424.9084249084,116915091.57509156,50002857.14285714,71.72405,1.0,1.0,1.0,1.0,1.0,20.0,,0 days 00:00:00.039000
2023-11-09 13:53:12.142,0.92959034,0.3993956,-0.4188302,0.17558742,0.4937605,-0.4839212,-0.48457068,-0.045057435,0.19117488,-0.0053005316,-0.35163304,0.20120814,0.5858864,0.2739936,-0.22756177,0.44453588,0.25965196,-0.16148992,-0.5775483,0.27041587,745.0183,804.65204,808.68134,791.75824,744.61536,100.0,0.0,-0.169189453125,0.0810546875,0.995361328125,2.340240478515625,-3.2598876953125,0.485992431640625,388424.9084249084,116915091.57509156,50002857.14285714,71.72405,1.0,1.0,1.0,1.0,1.0,20.0,,0 days 00:00:00
2023-11-09 13:53:12.143,0.92959034,0.3993956,-0.4188302,0.17558742,0.4937605,-0.4839212,-0.48457068,-0.045057435,0.19117488,-0.0053005316,-0.35163304,0.20120814,0.5858864,0.2739936,-0.22756177,0.44453588,0.25965196,-0.16148992,-0.5775483,0.27041587,746.63007,798.60803,805.4579,793.36993,709.5604,100.0,0.0,-0.169189453125,0.0810546875,0.995361328125,2.340240478515625,-3.2598876953125,0.485992431640625,388424.9084249084,116915091.57509156,50002857.14285714,71.72405,1.0,1.0,1.0,1.0,1.0,20.0,,0 days 00:00:00.001000
2023-11-09 13:53:12.144,0.92959034,0.3993956,-0.4188302,0.17558742,0.4937605,-0.4839212,-0.48457068,-0.045057435,0.19117488,-0.0053005316,-0.35163304,0.20120814,0.5858864,0.2739936,-0.22756177,0.44453588,0.25965196,-0.16148992,-0.5775483,0.27041587,753.8828,805.4579,805.4579,791.3553,711.1722,100.0,0.0,-0.169189453125,0.0810546875,0.995361328125,2.340240478515625,-3.2598876953125,0.485992431640625,388424.9084249084,116915091.57509156,50002857.14285714,71.72405,1.0,1.0,1.0,1.0,1.0,20.0,,0 days 00:00:00.001000
2023-11-09 13:53:12.144,0.92959034,0.3993956,-0.4188302,0.17558742,0.4937605,-0.4839212,-0.48457068,-0.045057435,0.19117488,-0.0053005316,-0.35163304,0.20120814,0.5858864,0.2739936,-0.22756177,0.44453588,0.25965196,-0.16148992,-0.5775483,0.27041587,752.674,815.9341,806.6667,790.14655,762.74725,100.0,0.0,-0.169189453125,0.0810546875,0.995361328125,2.340240478515625,-3.2598876953125,0.485992431640625,388424.9084249084,116915091.57509156,50002857.14285714,71.72405,1.0,1.0,1.0,1.0,1.0,20.0,,0 days 00:00:00
2023-11-09 13:53:12.145,0.92959034,0.3993956,-0.4188302,0.17558742,0.4937605,-0.4839212,-0.48457068,-0.045057435,0.19117488,-0.0053005316,-0.35163304,0.20120814,0.5858864,0.2739936,-0.22756177,0.44453588,0.25965196,-0.16148992,-0.5775483,0.27041587,751.06226,815.12823,811.50183,792.5641,851.79486,100.0,0.0,-0.169189453125,0.0810546875,0.995361328125,2.340240478515625,-3.2598876953125,0.485992431640625,388424.9084249084,116915091.57509156,50002857.14285714,71.72405,1.0,1.0,1.0,1.0,1.0,20.0,,0 days 00:00:00.001000
2023-11-09 13:53:12.145,0.92959034,0.3993956,-0.4188302,0.17558742,0.4937605,-0.4839212,-0.48457068,-0.045057435,0.19117488,-0.0053005316,-0.35163304,0.20120814,0.5858864,0.2739936,-0.22756177,0.44453588,0.25965196,-0.16148992,-0.5775483,0.27041587,750.2564,810.293,809.0842,788.1319,819.5604,100.0,0.0,-0.169189453125,0.0810546875,0.995361328125,2.340240478515625,-3.2598876953125,0.485992431640625,388424.9084249084,116915091.57509156,50002857.14285714,71.72405,1.0,1.0,1.0,1.0,1.0,20.0,,0 days 00:00:00
2023-11-09 13:53:12.145,0.92959034,0.3993956,-0.4188302,0.17558742,0.4937605,-0.4839212,-0.48457068,-0.045057435,0.19117488,-0.0053005316,-0.35163304,0.20120814,0.5858864,0.2739936,-0.22756177,0.44453588,0.25965196,-0.16148992,-0.5775483,0.27041587,754.2857,812.3077,808.68134,788.1319,695.8608,100.0,0.0,-0.169189453125,0.0810546875,0.995361328125,2.340240478515625,-3.2598876953125,0.485992431640625,388424.9084249084,116915091.57509156,50002857.14285714,71.72405,1.0,1.0,1.0,1.0,1.0,20.0,,0 days 00:00:00
2023-11-09 13:53:12.146,0.92959034,0.3993956,-0.4188302,0.17558742,0.4937605,-0.4839212,-0.48457068,-0.045057435,0.19117488,-0.0053005316,-0.35163304,0.20120814,0.5858864,0.2739936,-0.22756177,0.44453588,0.25965196,-0.16148992,-0.5775483,0.27041587,758.71796,812.71063,814.3223,790.54944,772.4176,100.0,0.0,-0.169189453125,0.0810546875,0.995361328125,2.340240478515625,-3.2598876953125,0.485992431640625,388424.9084249084,116915091.57509156,50002857.14285714,71.72405,1.0,1.0,1.0,1.0,1.0,20.0,,0 days 00:00:00.001000
2023-11-09 13:53:12.146,0.92959034,0.3993956,-0.4188302,0.17558742,0.4937605,-0.4839212,-0.48457068,-0.045057435,0.19117488,-0.0053005316,-0.35163304,0.20120814,0.5858864,0.2739936,-0.22756177,0.44453588,0.25965196,-0.16148992,-0.5775483,0.27041587,749.45056,812.3077,812.3077,798.60803,1009.34064,100.0,0.0,-0.169189453125,0.0810546875,0.995361328125,2.340240478515625,-3.2598876953125,0.485992431640625,388424.9084249084,116915091.57509156,50002857.14285714,71.72405,1.0,1.0,1.0,1.0,1.0,20.0,,0 days 00:00:00
2023-11-09 13:53:12.146,0.92959034,0.3993956,-0.4188302,0.17558742,0.4937605,-0.4839212,-0.48457068,-0.045057435,0.19117488,-0.0053005316,-0.35163304,0.20120814,0.5858864,0.2739936,-0.22756177,0.44453588,0.25965196,-0.16148992,-0.5775483,0.27041587,737.3626,808.68134,810.696,784.90845,897.72894,100.0,0.0,-0.169189453125,0.0810546875,0.995361328125,2.340240478515625,-3.2598876953125,0.485992431640625,388424.9084249084,116915091.57509156,50002857.14285714,71.72405,1.0,1.0,1.0,1.0,1.0,20.0,,0 days 00:00:00
2023-11-09 13:53:12.146,0.92959034,0.3993956,-0.4188302,0.17558742,0.4937605,-0.4839212,-0.48457068,-0.045057435,0.19117488,-0.0053005316,-0.35163304,0.20120814,0.5858864,0.2739936,-0.22756177,0.44453588,0.25965196,-0.16148992,-0.5775483,0.27041587,749.45056,811.50183,809.4872,772.8205,718.8278,100.0,0.0,-0.169189453125,0.0810546875,0.995361328125,2.340240478515625,-3.2598876953125,0.485992431640625,388424.9084249084,116915091.57509156,50002857.14285714,71.72405,1.0,1.0,1.0,1.0,1.0,20.0,,0 days 00:00:00
2023-11-09 13:53:12.203,0.92959034,0.3993956,-0.4188302,0.17558742,0.4937605,-0.4839212,-0.48457068,-0.045057435,0.19117488,-0.0053005316,-0.35163304,0.20120814,0.5858864,0.2739936,-0.22756177,0.44453588,0.25965196,-0.16148992,-0.5775483,0.27041587,770.0,812.71063,807.8755,779.2674,729.707,100.0,0.0,-0.1695556640625,0.07623291015625,0.9903564453125,2.086029052734375,-4.38140869140625,-0.10467529296875,388424.9084249084,116915091.57509156,50002857.14285714,71.72405,1.0,1.0,1.0,1.0,1.0,20.0,,0 days 00:00:00.057000
2023-11-09 13:53:12.204,0.92959034,0.3993956,-0.4188302,0.17558742,0.4937605,-0.4839212,-0.48457068,-0.045057435,0.19117488,-0.0053005316,-0.35163304,0.20120814,0.5858864,0.2739936,-0.22756177,0.44453588,0.25965196,-0.16148992,-0.5775483,0.27041587,775.64105,811.9048,808.68134,790.14655,716.8132,100.0,0.0,-0.1695556640625,0.07623291015625,0.9903564453125,2.086029052734375,-4.38140869140625,-0.10467529296875,388424.9084249084,116915091.57509156,50002857.14285714,71.72405,1.0,1.0,1.0,1.0,1.0,20.0,,0 days 00:00:00.001000
2023-11-09 13:53:12.205,0.92959034,0.3993956,-0.4188302,0.17558742,0.4937605,-0.4839212,-0.48457068,-0.045057435,0.19117488,-0.0053005316,-0.35163304,0.20120814,0.5858864,0.2739936,-0.22756177,0.44453588,0.25965196,-0.16148992,-0.5775483,0.27041587,763.1502,815.12823,809.89014,798.60803,722.0513,100.0,0.0,-0.1695556640625,0.07623291015625,0.9903564453125,2.086029052734375,-4.38140869140625,-0.10467529296875,388424.9084249084,116915091.57509156,50002857.14285714,71.72405,1.0,1.0,1.0,1.0,1.0,20.0,,0 days 00:00:00.001000
2023-11-09 13:53:12.205,0.92959034,0.3993956,-0.4188302,0.17558742,0.4937605,-0.4839212,-0.48457068,-0.045057435,0.19117488,-0.0053005316,-0.35163304,0.20120814,0.5858864,0.2739936,-0.22756177,0.44453588,0.25965196,-0.16148992,-0.5775483,0.27041587,762.3443,812.71063,814.3223,792.1612,780.87915,100.0,0.0,-0.1695556640625,0.07623291015625,0.9903564453125,2.086029052734375,-4.38140869140625,-0.10467529296875,388424.9084249084,116915091.57509156,50002857.14285714,71.72405,1.0,1.0,1.0,1.0,1.0,20.0,,0 days 00:00:00
2023-11-09 13:53:12.206,0.92959034,0.3993956,-0.4188302,0.17558742,0.4937605,-0.4839212,-0.48457068,-0.045057435,0.19117488,-0.0053005316,-0.35163304,0.20120814,0.5858864,0.2739936,-0.22756177,0.44453588,0.25965196,-0.16148992,-0.5775483,0.27041587,768.3883,808.68134,811.50183,791.75824,814.7253,100.0,0.0,-0.1695556640625,0.07623291015625,0.9903564453125,2.086029052734375,-4.38140869140625,-0.10467529296875,388424.9084249084,116915091.57509156,50002857.14285714,71.72405,1.0,1.0,1.0,1.0,1.0,20.0,,0 days 00:00:00.001000
2023-11-09 13:53:12.206,0.92959034,0.3993956,-0.4188302,0.17558742,0.4937605,-0.4839212,-0.48457068,-0.045057435,0.19117488,-0.0053005316,-0.35163304,0.20120814,0.5858864,0.2739936,-0.22756177,0.44453588,0.25965196,-0.16148992,-0.5775483,0.27041587,770.80585,805.8608,807.8755,793.36993,846.55676,100.0,0.0,-0.1695556640625,0.07623291015625,0.9903564453125,2.086029052734375,-4.38140869140625,-0.10467529296875,388424.9084249084,116915091.57509156,50002857.14285714,71.72405,1.0,1.0,1.0,1.0,1.0,20.0,,0 days 00:00:00
2023-11-09 13:53:12.207,0.92959034,0.3993956,-0.4188302,0.17558742,0.4937605,-0.4839212,-0.48457068,-0.045057435,0.19117488,-0.0053005316,-0.35163304,0.20120814,0.5858864,0.2739936,-0.22756177,0.44453588,0.25965196,-0.16148992,-0.5775483,0.27041587,764.7619,807.47253,808.68134,785.31134,802.23444,100.0,0.0,-0.1695556640625,0.07623291015625,0.9903564453125,2.086029052734375,-4.38140869140625,-0.10467529296875,388424.9084249084,116915091.57509156,50002857.14285714,71.72405,1.0,1.0,1.0,1.0,1.0,20.0,,0 days 00:00:00.001000
2023-11-09 13:53:12.207,0.92959034,0.3993956,-0.4188302,0.17558742,0.4937605,-0.4839212,-0.48457068,-0.045057435,0.19117488,-0.0053005316,-0.35163304,0.20120814,0.5858864,0.2739936,-0.22756177,0.44453588,0.25965196,-0.16148992,-0.5775483,0.27041587,760.7326,808.68134,809.89014,784.10254,737.3626,100.0,0.0,-0.1695556640625,0.07623291015625,0.9903564453125,2.086029052734375,-4.38140869140625,-0.10467529296875,388424.9084249084,116915091.57509156,50002857.14285714,71.72405,1.0,1.0,1.0,1.0,1.0,20.0,,0 days 00:00:00
2023-11-09 13:53:12.207,0.92959034,0.3993956,-0.4188302,0.17558742,0.4937605,-0.4839212,-0.48457068,-0.045057435,0.19117488,-0.0053005316,-0.35163304,0.20120814,0.5858864,0.2739936,-0.22756177,0.44453588,0.25965196,-0.16148992,-0.5775483,0.27041587,772.01465,809.0842,811.50183,791.75824,861.06226,100.0,0.0,-0.1695556640625,0.07623291015625,0.9903564453125,2.086029052734375,-4.38140869140625,-0.10467529296875,388424.9084249084,116915091.57509156,50002857.14285714,71.72405,1.0,1.0,1.0,1.0,1.0,20.0,,0 days 00:00:00
2023-11-09 13:53:12.208,0.92959034,0.3993956,-0.4188302,0.17558742,0.4937605,-0.4839212,-0.48457068,-0.045057435,0.19117488,-0.0053005316,-0.35163304,0.20120814,0.5858864,0.2739936,-0.22756177,0.44453588,0.25965196,-0.16148992,-0.5775483,0.27041587,770.40295,807.8755,813.5165,803.8461,1020.6227,100.0,0.0,-0.1695556640625,0.07623291015625,0.9903564453125,2.086029052734375,-4.38140869140625,-0.10467529296875,388424.9084249084,116915091.57509156,50002857.14285714,71.72405,1.0,1.0,1.0,1.0,1.0,20.0,,0 days 00:00:00.001000
2023-11-09 13:53:12.208,0.92959034,0.3993956,-0.4188302,0.17558742,0.4937605,-0.4839212,-0.48457068,-0.045057435,0.19117488,-0.0053005316,-0.35163304,0.20120814,0.5858864,0.2739936,-0.22756177,0.44453588,0.25965196,-0.16148992,-0.5775483,0.27041587,753.8828,809.0842,812.71063,799.011,794.9817,100.0,0.0,-0.1695556640625,0.07623291015625,0.9903564453125,2.086029052734375,-4.38140869140625,-0.10467529296875,388424.9084249084,116915091.57509156,50002857.14285714,71.72405,1.0,1.0,1.0,1.0,1.0,20.0,,0 days 00:00:00
2023-11-09 13:53:12.208,0.92959034,0.3993956,-0.4188302,0.17558742,0.4937605,-0.4839212,-0.48457068,-0.045057435,0.19117488,-0.0053005316,-0.35163304,0.20120814,0.5858864,0.2739936,-0.22756177,0.44453588,0.25965196,-0.16148992,-0.5775483,0.27041587,756.30035,809.4872,811.0989,794.17584,691.02563,100.0,0.0,-0.1695556640625,0.07623291015625,0.9903564453125,2.086029052734375,-4.38140869140625,-0.10467529296875,388424.9084249084,116915091.57509156,50002857.14285714,71.72405,1.0,1.0,1.0,1.0,1.0,20.0,,0 days 00:00:00
2023-11-09 13:53:12.237,0.92959034,0.3993956,-0.4188302,0.17558742,0.4937605,-0.4839212,-0.48457068,-0.045057435,0.19117488,-0.0053005316,-0.35163304,0.20120814,0.5858864,0.2739936,-0.22756177,0.44453588,0.25965196,-0.16148992,-0.5775483,0.27041587,773.22345,799.81683,812.71063,800.6227,849.3773,100.0,0.0,-0.1595458984375,0.07452392578125,0.9896240234375,2.811279296875,-5.345916748046875,-0.142059326171875,386813.1868131868,116816776.55677655,49940805.86080586,71.72405,1.0,1.0,1.0,1.0,1.0,20.0,,0 days 00:00:00.029000
2023-11-09 13:53:12.237,0.92959034,0.36712494,-0.40714678,0.17558742,0.4937605,-0.3923728,-0.47808915,-0.045057435,0.19117488,0.09343646,-0.31937525,0.20120814,0.5858864,0.28041458,-0.20191287,0.44453588,0.25965196,-0.14986712,-0.5850858,0.27041587,773.6264,794.57874,811.9048,789.34064,752.27106,100.0,0.0,-0.1595458984375,0.07452392578125,0.9896240234375,2.811279296875,-5.345916748046875,-0.142059326171875,386813.1868131868,116816776.55677655,49940805.86080586,71.72405,1.0,1.0,1.0,1.0,1.0,20.0,,0 days 00:00:00
2023-11-09 13:53:12.239,0.92959034,0.36712494,-0.40714678,0.17558742,0.4937605,-0.3923728,-0.47808915,-0.045057435,0.19117488,0.09343646,-0.31937525,0.20120814,0.5858864,0.28041458,-0.20191287,0.44453588,0.25965196,-0.14986712,-0.5850858,0.27041587,761.9414,796.5934,808.2784,780.07324,705.5311,100.0,0.0,-0.1595458984375,0.07452392578125,0.9896240234375,2.811279296875,-5.345916748046875,-0.142059326171875,386813.1868131868,116816776.55677655,49940805.86080586,71.72405,1.0,1.0,1.0,1.0,1.0,20.0,,0 days 00:00:00.002000
2023-11-09 13:53:12.239,0.92959034,0.36712494,-0.40714678,0.17558742,0.4937605,-0.3923728,-0.47808915,-0.045057435,0.19117488,0.09343646,-0.31937525,0.20120814,0.5858864,0.28041458,-0.20191287,0.44453588,0.25965196,-0.14986712,-0.5850858,0.27041587,755.89746,801.8315,805.05493,792.1612,784.90845,100.0,0.0,-0.1595458984375,0.07452392578125,0.9896240234375,2.811279296875,-5.345916748046875,-0.142059326171875,386813.1868131868,116816776.55677655,49940805.86080586,71.72405,1.0,1.0,1.0,1.0,1.0,20.0,,0 days 00:00:00
2023-11-09 13:53:12.240,0.92959034,0.36712494,-0.40714678,0.17558742,0.4937605,-0.3923728,-0.47808915,-0.045057435,0.19117488,0.09343646,-0.31937525,0.20120814,0.5858864,0.28041458,-0.20191287,0.44453588,0.25965196,-0.14986712,-0.5850858,0.27041587,765.9707,801.8315,806.26373,798.60803,773.22345,100.0,0.0,-0.1595458984375,0.07452392578125,0.9896240234375,2.811279296875,-5.345916748046875,-0.142059326171875,386813.1868131868,116816776.55677655,49940805.86080586,71.72405,1.0,1.0,1.0,1.0,1.0,20.0,,0 days 00:00:00.001000
2023-11-09 13:53:12.240,0.92959034,0.36712494,-0.40714678,0.17558742,0.4937605,-0.3923728,-0.47808915,-0.045057435,0.19117488,0.09343646,-0.31937525,0.20120814,0.5858864,0.28041458,-0.20191287,0.44453588,0.25965196,-0.14986712,-0.5850858,0.27041587,776.8498,796.5934,811.9048,791.75824,805.05493,100.0,0.0,-0.1595458984375,0.07452392578125,0.9896240234375,2.811279296875,-5.345916748046875,-0.142059326171875,386813.1868131868,116816776.55677655,49940805.86080586,71.72405,1.0,1.0,1.0,1.0,1.0,20.0,,0 days 00:00:00
2023-11-09 13:53:12.240,0.92959034,0.36712494,-0.40714678,0.17558742,0.4937605,-0.3923728,-0.47808915,-0.045057435,0.19117488,0.09343646,-0.31937525,0.20120814,0.5858864,0.28041458,-0.20191287,0.44453588,0.25965196,-0.14986712,-0.5850858,0.27041587,774.0293,801.4286,810.293,787.72894,841.31866,100.0,0.0,-0.1595458984375,0.07452392578125,0.9896240234375,2.811279296875,-5.345916748046875,-0.142059326171875,386813.1868131868,116816776.55677655,49940805.86080586,71.72405,1.0,1.0,1.0,1.0,1.0,20.0,,0 days 00:00:00
2023-11-09 13:53:12.241,0.92959034,0.36712494,-0.40714678,0.17558742,0.4937605,-0.3923728,-0.47808915,-0.045057435,0.19117488,0.09343646,-0.31937525,0.20120814,0.5858864,0.28041458,-0.20191287,0.44453588,0.25965196,-0.14986712,-0.5850858,0.27041587,770.0,805.8608,810.696,793.7729,792.96704,100.0,0.0,-0.1595458984375,0.07452392578125,0.9896240234375,2.811279296875,-5.345916748046875,-0.142059326171875,386813.1868131868,116816776.55677655,49940805.86080586,71.72405,1.0,1.0,1.0,1.0,1.0,20.0,,0 days 00:00:00.001000
2023-11-09 13:53:12.241,0.92959034,0.36712494,-0.40714678,0.17558742,0.4937605,-0.3923728,-0.47808915,-0.045057435,0.19117488,0.09343646,-0.31937525,0.20120814,0.5858864,0.28041458,-0.20191287,0.44453588,0.25965196,-0.14986712,-0.5850858,0.27041587,770.0,808.2784,813.5165,794.9817,814.7253,100.0,0.0,-0.1595458984375,0.07452392578125,0.9896240234375,2.811279296875,-5.345916748046875,-0.142059326171875,386813.1868131868,116816776.55677655,49940805.86080586,71.72405,1.0,1.0,1.0,1.0,1.0,20.0,,0 days 00:00:00
2023-11-09 13:53:12.241,0.92959034,0.36712494,-0.40714678,0.17558742,0.4937605,-0.3923728,-0.47808915,-0.045057435,0.19117488,0.09343646,-0.31937525,0.20120814,0.5858864,0.28041458,-0.20191287,0.44453588,0.25965196,-0.14986712,-0.5850858,0.27041587,771.6117,807.0696,810.293,792.1612,821.1722,100.0,0.0,-0.1595458984375,0.07452392578125,0.9896240234375,2.811279296875,-5.345916748046875,-0.142059326171875,386813.1868131868,116816776.55677655,49940805.86080586,71.72405,1.0,1.0,1.0,1.0,1.0,20.0,,0 days 00:00:00
2023-11-09 13:53:12.241,0.92959034,0.36712494,-0.40714678,0.17558742,0.4937605,-0.3923728,-0.47808915,-0.045057435,0.19117488,0.09343646,-0.31937525,0.20120814,0.5858864,0.28041458,-0.20191287,0.44453588,0.25965196,-0.14986712,-0.5850858,0.27041587,771.2088,803.8461,809.0842,790.9524,739.3773,100.0,0.0,-0.1595458984375,0.07452392578125,0.9896240234375,2.811279296875,-5.345916748046875,-0.142059326171875,386813.1868131868,116816776.55677655,49940805.86080586,71.72405,1.0,1.0,1.0,1.0,1.0,20.0,,0 days 00:00:00
2023-11-09 13:53:12.242,0.92959034,0.36712494,-0.40714678,0.17558742,0.4937605,-0.3923728,-0.47808915,-0.045057435,0.19117488,0.09343646,-0.31937525,0.20120814,0.5858864,0.28041458,-0.20191287,0.44453588,0.25965196,-0.14986712,-0.5850858,0.27041587,771.2088,806.6667,811.0989,801.4286,823.1868,100.0,0.0,-0.1595458984375,0.07452392578125,0.9896240234375,2.811279296875,-5.345916748046875,-0.142059326171875,386813.1868131868,116816776.55677655,49940805.86080586,71.72405,1.0,1.0,1.0,1.0,1.0,20.0,,0 days 00:00:00.001000
2023-11-09 13:53:12.265,0.92959034,0.36712494,-0.40714678,0.17558742,0.4937605,-0.3923728,-0.47808915,-0.045057435,0.19117488,0.09343646,-0.31937525,0.20120814,0.5858864,0.28041458,-0.20191287,0.44453588,0.25965196,-0.14986712,-0.5850858,0.27041587,773.6264,809.0842,812.71063,822.381,1013.7729,100.0,0.0,-0.1595458984375,0.07452392578125,0.9896240234375,2.811279296875,-5.345916748046875,-0.142059326171875,386813.1868131868,116816776.55677655,49940805.86080586,71.72405,1.0,1.0,1.0,1.0,1.0,20.0,,0 days 00:00:00.023000
2023-11-09 13:53:12.266,0.92959034,0.36712494,-0.40714678,0.17558742,0.4937605,-0.3923728,-0.47808915,-0.045057435,0.19117488,0.09343646,-0.31937525,0.20120814,0.5858864,0.28041458,-0.20191287,0.44453588,0.25965196,-0.14986712,-0.5850858,0.27041587,765.9707,808.2784,806.26373,797.8022,822.7839,100.0,0.0,-0.1595458984375,0.07452392578125,0.9896240234375,2.811279296875,-5.345916748046875,-0.142059326171875,386813.1868131868,116816776.55677655,49940805.86080586,71.72405,1.0,1.0,1.0,1.0,1.0,20.0,,0 days 00:00:00.001000
2023-11-09 13:53:12.266,0.92959034,0.36712494,-0.40714678,0.17558742,0.4937605,-0.3923728,-0.47808915,-0.045057435,0.19117488,0.09343646,-0.31937525,0.20120814,0.5858864,0.28041458,-0.20191287,0.44453588,0.25965196,-0.14986712,-0.5850858,0.27041587,759.92676,802.6374,803.44324,776.8498,761.9414,100.0,0.0,-0.1595458984375,0.07452392578125,0.9896240234375,2.811279296875,-5.345916748046875,-0.142059326171875,386813.1868131868,116816776.55677655,49940805.86080586,71.72405,1.0,1.0,1.0,1.0,1.0,20.0,,0 days 00:00:00
2023-11-09 13:53:12.267,0.92959034,0.36712494,-0.40714678,0.17558742,0.4937605,-0.3923728,-0.47808915,-0.045057435,0.19117488,0.09343646,-0.31937525,0.20120814,0.5858864,0.28041458,-0.20191287,0.44453588,0.25965196,-0.14986712,-0.5850858,0.27041587,758.71796,803.44324,807.47253,786.1172,834.87177,100.0,0.0,-0.1595458984375,0.07452392578125,0.9896240234375,2.811279296875,-5.345916748046875,-0.142059326171875,386813.1868131868,116816776.55677655,49940805.86080586,71.72405,1.0,1.0,1.0,1.0,1.0,20.0,,0 days 00:00:00.001000
2023-11-09 13:53:12.267,0.92959034,0.36712494,-0.40714678,0.17558742,0.4937605,-0.3923728,-0.47808915,-0.045057435,0.19117488,0.09343646,-0.31937525,0.20120814,0.5858864,0.28041458,-0.20191287,0.44453588,0.25965196,-0.14986712,-0.5850858,0.27041587,762.74725,807.0696,811.9048,787.326,752.27106,100.0,0.0,-0.1595458984375,0.07452392578125,0.9896240234375,2.811279296875,-5.345916748046875,-0.142059326171875,386813.1868131868,116816776.55677655,49940805.86080586,71.72405,1.0,1.0,1.0,1.0,1.0,20.0,,0 days 00:00:00
2023-11-09 13:53:12.268,0.92959034,0.36712494,-0.40714678,0.17558742,0.4937605,-0.3923728,-0.47808915,-0.045057435,0.19117488,0.09343646,-0.31937525,0.20120814,0.5858864,0.28041458,-0.20191287,0.44453588,0.25965196,-0.14986712,-0.5850858,0.27041587,764.35895,797.3993,807.8755,780.07324,780.87915,100.0,0.0,-0.1595458984375,0.07452392578125,0.9896240234375,2.811279296875,-5.345916748046875,-0.142059326171875,386813.1868131868,116816776.55677655,49940805.86080586,71.72405,1.0,1.0,1.0,1.0,1.0,20.0,,0 days 00:00:00.001000
2023-11-09 13:53:12.268,0.92959034,0.36712494,-0.40714678,0.17558742,0.4937605,-0.3923728,-0.47808915,-0.045057435,0.19117488,0.09343646,-0.31937525,0.20120814,0.5858864,0.28041458,-0.20191287,0.44453588,0.25965196,-0.14986712,-0.5850858,0.27041587,769.19415,795.78754,803.8461,776.4469,800.2198,100.0,0.0,-0.1595458984375,0.07452392578125,0.9896240234375,2.811279296875,-5.345916748046875,-0.142059326171875,386813.1868131868,116816776.55677655,49940805.86080586,71.72405,1.0,1.0,1.0,1.0,1.0,20.0,,0 days 00:00:00
2023-11-09 13:53:12.268,0.92959034,0.36712494,-0.40714678,0.17558742,0.4937605,-0.3923728,-0.47808915,-0.045057435,0.19117488,0.09343646,-0.31937525,0.20120814,0.5858864,0.28041458,-0.20191287,0.44453588,0.25965196,-0.14986712,-0.5850858,0.27041587,772.4176,801.8315,804.2491,789.7436,869.92676,100.0,0.0,-0.1595458984375,0.07452392578125,0.9896240234375,2.811279296875,-5.345916748046875,-0.142059326171875,386813.1868131868,116816776.55677655,49940805.86080586,71.72405,1.0,1.0,1.0,1.0,1.0,20.0,,0 days 00:00:00
2023-11-09 13:53:12.269,0.92959034,0.36712494,-0.40714678,0.17558742,0.4937605,-0.3923728,-0.47808915,-0.045057435,0.19117488,0.09343646,-0.31937525,0.20120814,0.5858864,0.28041458,-0.20191287,0.44453588,0.25965196,-0.14986712,-0.5850858,0.27041587,767.5824,801.4286,803.44324,792.96704,880.40295,100.0,0.0,-0.1595458984375,0.07452392578125,0.9896240234375,2.811279296875,-5.345916748046875,-0.142059326171875,386813.1868131868,116816776.55677655,49940805.86080586,71.72405,1.0,1.0,1.0,1.0,1.0,20.0,,0 days 00:00:00.001000
2023-11-09 13:53:12.269,0.92959034,0.36712494,-0.40714678,0.17558742,0.4937605,-0.3923728,-0.47808915,-0.045057435,0.19117488,0.09343646,-0.31937525,0.20120814,0.5858864,0.28041458,-0.20191287,0.44453588,0.25965196,-0.14986712,-0.5850858,0.27041587,776.4469,797.8022,799.81683,785.7143,751.06226,100.0,0.0,-0.1595458984375,0.07452392578125,0.9896240234375,2.811279296875,-5.345916748046875,-0.142059326171875,386813.1868131868,116816776.55677655,49940805.86080586,71.72405,1.0,1.0,1.0,1.0,1.0,20.0,,0 days 00:00:00
2023-11-09 13:53:12.269,0.92959034,0.36712494,-0.40714678,0.17558742,0.4937605,-0.3923728,-0.47808915,-0.045057435,0.19117488,0.09343646,-0.31937525,0.20120814,0.5858864,0.28041458,-0.20191287,0.44453588,0.25965196,-0.14986712,-0.5850858,0.27041587,792.96704,801.4286,800.2198,790.14655,751.4652,100.0,0.0,-0.1595458984375,0.07452392578125,0.9896240234375,2.811279296875,-5.345916748046875,-0.142059326171875,386813.1868131868,116816776.55677655,49940805.86080586,71.72405,1.0,1.0,1.0,1.0,1.0,20.0,,0 days 00:00:00
2023-11-09 13:53:12.269,0.92959034,0.36712494,-0.40714678,0.17558742,0.4937605,-0.3923728,-0.47808915,-0.045057435,0.19117488,0.09343646,-0.31937525,0.20120814,0.5858864,0.28041458,-0.20191287,0.44453588,0.25965196,-0.14986712,-0.5850858,0.27041587,786.1172,806.26373,802.23444,799.81683,909.011,100.0,0.0,-0.1595458984375,0.07452392578125,0.9896240234375,2.811279296875,-5.345916748046875,-0.142059326171875,386813.1868131868,116816776.55677655,49940805.86080586,71.72405,1.0,1.0,1.0,1.0,1.0,20.0,,0 days 00:00:00
2023-11-09 13:53:12.333,0.92959034,0.36712494,-0.40714678,0.17558742,0.4937605,-0.3923728,-0.47808915,-0.045057435,0.19117488,0.09343646,-0.31937525,0.20120814,0.5858864,0.28041458,-0.20191287,0.44453588,0.25965196,-0.14986712,-0.5850858,0.27041587,774.43225,802.23444,803.0403,807.8755,1152.7839,100.0,0.0,-0.16156005859375,0.07537841796875,0.99139404296875,1.562652587890625,-4.5458984375,1.1065673828125,387619.0476190476,116714432.23443224,49906153.84615385,71.72405,1.0,1.0,1.0,1.0,1.0,20.0,,0 days 00:00:00.064000
2023-11-09 13:53:12.333,0.92959034,0.36712494,-0.40714678,0.17558742,0.4937605,-0.3923728,-0.47808915,-0.045057435,0.19117488,0.09343646,-0.31937525,0.20120814,0.5858864,0.28041458,-0.20191287,0.44453588,0.25965196,-0.14986712,-0.5850858,0.27041587,778.0586,793.7729,805.4579,807.0696,1014.57874,100.0,0.0,-0.16156005859375,0.07537841796875,0.99139404296875,1.562652587890625,-4.5458984375,1.1065673828125,387619.0476190476,116714432.23443224,49906153.84615385,71.72405,1.0,1.0,1.0,1.0,1.0,20.0,,0 days 00:00:00
2023-11-09 13:53:12.334,0.92959034,0.36712494,-0.40714678,0.17558742,0.4937605,-0.3923728,-0.47808915,-0.045057435,0.19117488,0.09343646,-0.31937525,0.20120814,0.5858864,0.28041458,-0.20191287,0.44453588,0.25965196,-0.14986712,-0.5850858,0.27041587,784.5055,798.20514,800.6227,785.7143,794.9817,100.0,0.0,-0.16156005859375,0.07537841796875,0.99139404296875,1.562652587890625,-4.5458984375,1.1065673828125,387619.0476190476,116714432.23443224,49906153.84615385,71.72405,1.0,1.0,1.0,1.0,1.0,20.0,,0 days 00:00:00.001000
2023-11-09 13:53:12.334,0.92959034,0.33407396,-0.3582104,0.17558742,0.4937605,-0.30279443,-0.46276978,-0.045057435,0.19117488,0.14748432,-0.3034246,0.20120814,0.5858864,0.27331007,-0.18861835,0.44453588,0.25965196,-0.13013953,-0.59137785,0.27041587,774.83514,806.26373,796.99634,771.2088,836.08057,100.0,0.0,-0.16156005859375,0.07537841796875,0.99139404296875,1.562652587890625,-4.5458984375,1.1065673828125,387619.0476190476,116714432.23443224,49906153.84615385,71.72405,1.0,1.0,1.0,1.0,1.0,20.0,,0 days 00:00:00
2023-11-09 13:53:12.336,0.92959034,0.33407396,-0.3582104,0.17558742,0.4937605,-0.30279443,-0.46276978,-0.045057435,0.19117488,0.14748432,-0.3034246,0.20120814,0.5858864,0.27331007,-0.18861835,0.44453588,0.25965196,-0.13013953,-0.59137785,0.27041587,754.2857,801.8315,800.6227,776.04395,801.4286,100.0,0.0,-0.16156005859375,0.07537841796875,0.99139404296875,1.562652587890625,-4.5458984375,1.1065673828125,387619.0476190476,116714432.23443224,49906153.84615385,71.72405,1.0,1.0,1.0,1.0,1.0,20.0,,0 days 00:00:00.002000
2023-11-09 13:53:12.336,0.92959034,0.33407396,-0.3582104,0.17558742,0.4937605,-0.30279443,-0.46276978,-0.045057435,0.19117488,0.14748432,-0.3034246,0.20120814,0.5858864,0.27331007,-0.18861835,0.44453588,0.25965196,-0.13013953,-0.59137785,0.27041587,754.2857,803.0403,802.23444,781.685,804.2491,100.0,0.0,-0.16156005859375,0.07537841796875,0.99139404296875,1.562652587890625,-4.5458984375,1.1065673828125,387619.0476190476,116714432.23443224,49906153.84615385,71.72405,1.0,1.0,1.0,1.0,1.0,20.0,,0 days 00:00:00
2023-11-09 13:53:12.337,0.92959034,0.33407396,-0.3582104,0.17558742,0.4937605,-0.30279443,-0.46276978,-0.045057435,0.19117488,0.14748432,-0.3034246,0.20120814,0.5858864,0.27331007,-0.18861835,0.44453588,0.25965196,-0.13013953,-0.59137785,0.27041587,768.7912,811.9048,803.44324,784.90845,865.89746,100.0,0.0,-0.16156005859375,0.07537841796875,0.99139404296875,1.562652587890625,-4.5458984375,1.1065673828125,387619.0476190476,116714432.23443224,49906153.84615385,71.72405,1.0,1.0,1.0,1.0,1.0,20.0,,0 days 00:00:00.001000
2023-11-09 13:53:12.337,0.92959034,0.33407396,-0.3582104,0.17558742,0.4937605,-0.30279443,-0.46276978,-0.045057435,0.19117488,0.14748432,-0.3034246,0.20120814,0.5858864,0.27331007,-0.18861835,0.44453588,0.25965196,-0.13013953,-0.59137785,0.27041587,771.2088,803.8461,804.65204,804.2491,1043.9927,100.0,0.0,-0.16156005859375,0.07537841796875,0.99139404296875,1.562652587890625,-4.5458984375,1.1065673828125,387619.0476190476,116714432.23443224,49906153.84615385,71.72405,1.0,1.0,1.0,1.0,1.0,20.0,,0 days 00:00:00
2023-11-09 13:53:12.337,0.92959034,0.33407396,-0.3582104,0.17558742,0.4937605,-0.30279443,-0.46276978,-0.045057435,0.19117488,0.14748432,-0.3034246,0.20120814,0.5858864,0.27331007,-0.18861835,0.44453588,0.25965196,-0.13013953,-0.59137785,0.27041587,760.32965,798.60803,801.4286,796.5934,947.28937,100.0,0.0,-0.16156005859375,0.07537841796875,0.99139404296875,1.562652587890625,-4.5458984375,1.1065673828125,387619.0476190476,116714432.23443224,49906153.84615385,71.72405,1.0,1.0,1.0,1.0,1.0,20.0,,0 days 00:00:00
2023-11-09 13:53:12.337,0.92959034,0.33407396,-0.3582104,0.17558742,0.4937605,-0.30279443,-0.46276978,-0.045057435,0.19117488,0.14748432,-0.3034246,0.20120814,0.5858864,0.27331007,-0.18861835,0.44453588,0.25965196,-0.13013953,-0.59137785,0.27041587,751.4652,799.011,800.2198,781.28204,741.79486,100.0,0.0,-0.16156005859375,0.07537841796875,0.99139404296875,1.562652587890625,-4.5458984375,1.1065673828125,387619.0476190476,116714432.23443224,49906153.84615385,71.72405,1.0,1.0,1.0,1.0,1.0,20.0,,0 days 00:00:00
2023-11-09 13:53:12.338,0.92959034,0.33407396,-0.3582104,0.17558742,0.4937605,-0.30279443,-0.46276978,-0.045057435,0.19117488,0.14748432,-0.3034246,0.20120814,0.5858864,0.27331007,-0.18861835,0.44453588,0.25965196,-0.13013953,-0.59137785,0.27041587,758.315,803.0403,797.3993,788.5348,730.10986,100.0,0.0,-0.16156005859375,0.07537841796875,0.99139404296875,1.562652587890625,-4.5458984375,1.1065673828125,387619.0476190476,116714432.23443224,49906153.84615385,71.72405,1.0,1.0,1.0,1.0,1.0,20.0,,0 days 00:00:00.001000
2023-11-09 13:53:12.338,0.92959034,0.33407396,-0.3582104,0.17558742,0.4937605,-0.30279443,-0.46276978,-0.045057435,0.19117488,0.14748432,-0.3034246,0.20120814,0.5858864,0.27331007,-0.18861835,0.44453588,0.25965196,-0.13013953,-0.59137785,0.27041587,769.59705,811.0989,803.0403,792.1612,729.707,100.0,0.0,-0.16156005859375,0.07537841796875,0.99139404296875,1.562652587890625,-4.5458984375,1.1065673828125,387619.0476190476,116714432.23443224,49906153.84615385,71.72405,1.0,1.0,1.0,1.0,1.0,20.0,,0 days 00:00:00
2023-11-09 13:53:12.373,0.92959034,0.33407396,-0.3582104,0.17558742,0.4937605,-0.30279443,-0.46276978,-0.045057435,0.19117488,0.14748432,-0.3034246,0.20120814,0.5858864,0.27331007,-0.18861835,0.44453588,0.25965196,-0.13013953,-0.59137785,0.27041587,766.3736,811.9048,805.4579,792.5641,655.16486,100.0,0.0,-0.17449951171875,0.063720703125,0.9881591796875,0.97198486328125,-3.48419189453125,0.396270751953125,387619.0476190476,116714432.23443224,49906153.84615385,71.72405,1.0,1.0,1.0,1.0,1.0,20.0,,0 days 00:00:00.035000
2023-11-09 13:53:12.374,0.92959034,0.33407396,-0.3582104,0.17558742,0.4937605,-0.30279443,-0.46276978,-0.045057435,0.19117488,0.14748432,-0.3034246,0.20120814,0.5858864,0.27331007,-0.18861835,0.44453588,0.25965196,-0.13013953,-0.59137785,0.27041587,757.50916,810.293,801.8315,790.9524,677.326,100.0,0.0,-0.17449951171875,0.063720703125,0.9881591796875,0.97198486328125,-3.48419189453125,0.396270751953125,387619.0476190476,116714432.23443224,49906153.84615385,71.72405,1.0,1.0,1.0,1.0,1.0,20.0,,0 days 00:00:00.001000
2023-11-09 13:53:12.375,0.92959034,0.33407396,-0.3582104,0.17558742,0.4937605,-0.30279443,-0.46276978,-0.045057435,0.19117488,0.14748432,-0.3034246,0.20120814,0.5858864,0.27331007,-0.18861835,0.44453588,0.25965196,-0.13013953,-0.59137785,0.27041587,765.9707,812.71063,804.2491,796.1905,784.90845,100.0,0.0,-0.17449951171875,0.063720703125,0.9881591796875,0.97198486328125,-3.48419189453125,0.396270751953125,387619.0476190476,116714432.23443224,49906153.84615385,71.72405,1.0,1.0,1.0,1.0,1.0,20.0,,0 days 00:00:00.001000
2023-11-09 13:53:12.375,0.92959034,0.33407396,-0.3582104,0.17558742,0.4937605,-0.30279443,-0.46276978,-0.045057435,0.19117488,0.14748432,-0.3034246,0.20120814,0.5858864,0.27331007,-0.18861835,0.44453588,0.25965196,-0.13013953,-0.59137785,0.27041587,775.2381,811.9048,802.23444,788.93774,701.9048,100.0,0.0,-0.17449951171875,0.063720703125,0.9881591796875,0.97198486328125,-3.48419189453125,0.396270751953125,387619.0476190476,116714432.23443224,49906153.84615385,71.72405,1.0,1.0,1.0,1.0,1.0,20.0,,0 days 00:00:00
2023-11-09 13:53:12.376,0.92959034,0.33407396,-0.3582104,0.17558742,0.4937605,-0.30279443,-0.46276978,-0.045057435,0.19117488,0.14748432,-0.3034246,0.20120814,0.5858864,0.27331007,-0.18861835,0.44453588,0.25965196,-0.13013953,-0.59137785,0.27041587,776.04395,807.47253,798.20514,788.1319,694.2491,100.0,0.0,-0.17449951171875,0.063720703125,0.9881591796875,0.97198486328125,-3.48419189453125,0.396270751953125,387619.0476190476,116714432.23443224,49906153.84615385,71.72405,1.0,1.0,1.0,1.0,1.0,20.0,,0 days 00:00:00.001000
2023-11-09 13:53:12.376,0.92959034,0.33407396,-0.3582104,0.17558742,0.4937605,-0.30279443,-0.46276978,-0.045057435,0.19117488,0.14748432,-0.3034246,0.20120814,0.5858864,0.27331007,-0.18861835,0.44453588,0.25965196,-0.13013953,-0.59137785,0.27041587,765.9707,801.8315,798.60803,795.78754,794.57874,100.0,0.0,-0.17449951171875,0.063720703125,0.9881591796875,0.97198486328125,-3.48419189453125,0.396270751953125,387619.0476190476,116714432.23443224,49906153.84615385,71.72405,1.0,1.0,1.0,1.0,1.0,20.0,,0 days 00:00:00
2023-11-09 13:53:12.377,0.92959034,0.33407396,-0.3582104,0.17558742,0.4937605,-0.30279443,-0.46276978,-0.045057435,0.19117488,0.14748432,-0.3034246,0.20120814,0.5858864,0.27331007,-0.18861835,0.44453588,0.25965196,-0.13013953,-0.59137785,0.27041587,748.6447,803.8461,802.23444,795.38464,981.9414,100.0,0.0,-0.17449951171875,0.063720703125,0.9881591796875,0.97198486328125,-3.48419189453125,0.396270751953125,387619.0476190476,116714432.23443224,49906153.84615385,71.72405,1.0,1.0,1.0,1.0,1.0,20.0,,0 days 00:00:00.001000
2023-11-09 13:53:12.377,0.92959034,0.33407396,-0.3582104,0.17558742,0.4937605,-0.30279443,-0.46276978,-0.045057435,0.19117488,0.14748432,-0.3034246,0.20120814,0.5858864,0.27331007,-0.18861835,0.44453588,0.25965196,-0.13013953,-0.59137785,0.27041587,752.674,807.8755,805.4579,805.8608,1077.033,100.0,0.0,-0.17449951171875,0.063720703125,0.9881591796875,0.97198486328125,-3.48419189453125,0.396270751953125,387619.0476190476,116714432.23443224,49906153.84615385,71.72405,1.0,1.0,1.0,1.0,1.0,20.0,,0 days 00:00:00
2023-11-09 13:53:12.378,0.92959034,0.33407396,-0.3582104,0.17558742,0.4937605,-0.30279443,-0.46276978,-0.045057435,0.19117488,0.14748432,-0.3034246,0.20120814,0.5858864,0.27331007,-0.18861835,0.44453588,0.25965196,-0.13013953,-0.59137785,0.27041587,765.56775,803.0403,808.2784,802.23444,819.9634,100.0,0.0,-0.17449951171875,0.063720703125,0.9881591796875,0.97198486328125,-3.48419189453125,0.396270751953125,387619.0476190476,116714432.23443224,49906153.84615385,71.72405,1.0,1.0,1.0,1.0,1.0,20.0,,0 days 00:00:00.001000
2023-11-09 13:53:12.378,0.92959034,0.33407396,-0.3582104,0.17558742,0.4937605,-0.30279443,-0.46276978,-0.045057435,0.19117488,0.14748432,-0.3034246,0.20120814,0.5858864,0.27331007,-0.18861835,0.44453588,0.25965196,-0.13013953,-0.59137785,0.27041587,761.13556,796.1905,809.4872,792.1612,710.7692,100.0,0.0,-0.17449951171875,0.063720703125,0.9881591796875,0.97198486328125,-3.48419189453125,0.396270751953125,387619.0476190476,116714432.23443224,49906153.84615385,71.72405,1.0,1.0,1.0,1.0,1.0,20.0,,0 days 00:00:00
2023-11-09 13:53:12.379,0.92959034,0.33407396,-0.3582104,0.17558742,0.4937605,-0.30279443,-0.46276978,-0.045057435,0.19117488,0.14748432,-0.3034246,0.20120814,0.5858864,0.27331007,-0.18861835,0.44453588,0.25965196,-0.13013953,-0.59137785,0.27041587,757.50916,802.23444,807.8755,799.41394,935.2015,100.0,0.0,-0.17449951171875,0.063720703125,0.9881591796875,0.97198486328125,-3.48419189453125,0.396270751953125,387619.0476190476,116714432.23443224,49906153.84615385,71.72405,1.0,1.0,1.0,1.0,1.0,20.0,,0 days 00:00:00.001000
2023-11-09 13:53:12.379,0.92959034,0.33407396,-0.3582104,0.17558742,0.4937605,-0.30279443,-0.46276978,-0.045057435,0.19117488,0.14748432,-0.3034246,0.20120814,0.5858864,0.27331007,-0.18861835,0.44453588,0.25965196,-0.13013953,-0.59137785,0.27041587,766.77655,808.68134,805.4579,799.41394,957.3626,100.0,0.0,-0.17449951171875,0.063720703125,0.9881591796875,0.97198486328125,-3.48419189453125,0.396270751953125,387619.0476190476,116714432.23443224,49906153.84615385,71.72405,1.0,1.0,1.0,1.0,1.0,20.0,,0 days 00:00:00
2023-11-09 13:53:12.408,0.92959034,0.33407396,-0.3582104,0.17558742,0.4937605,-0.30279443,-0.46276978,-0.045057435,0.19117488,0.14748432,-0.3034246,0.20120814,0.5858864,0.27331007,-0.18861835,0.44453588,0.25965196,-0.13013953,-0.59137785,0.27041587,770.80585,803.44324,804.65204,776.04395,746.63007,100.0,0.0,-0.16815185546875,0.05950927734375,0.9818115234375,1.248626708984375,-5.914154052734375,-2.691650390625,388424.9084249084,116780512.82051282,49936776.55677655,71.3455,1.0,1.0,1.0,1.0,1.0,20.0,,0 days 00:00:00.029000
2023-11-09 13:53:12.409,0.92959034,0.33407396,-0.3582104,0.17558742,0.4937605,-0.30279443,-0.46276978,-0.045057435,0.19117488,0.14748432,-0.3034246,0.20120814,0.5858864,0.27331007,-0.18861835,0.44453588,0.25965196,-0.13013953,-0.59137785,0.27041587,771.2088,803.8461,805.4579,780.87915,720.84247,100.0,0.0,-0.16815185546875,0.05950927734375,0.9818115234375,1.248626708984375,-5.914154052734375,-2.691650390625,388424.9084249084,116780512.82051282,49936776.55677655,71.3455,1.0,1.0,1.0,1.0,1.0,20.0,,0 days 00:00:00.001000
2023-11-09 13:53:12.409,0.92959034,0.33407396,-0.3582104,0.17558742,0.4937605,-0.30279443,-0.46276978,-0.045057435,0.19117488,0.14748432,-0.3034246,0.20120814,0.5858864,0.27331007,-0.18861835,0.44453588,0.25965196,-0.13013953,-0.59137785,0.27041587,773.6264,807.0696,807.47253,790.54944,794.57874,100.0,0.0,-0.16815185546875,0.05950927734375,0.9818115234375,1.248626708984375,-5.914154052734375,-2.691650390625,388424.9084249084,116780512.82051282,49936776.55677655,71.3455,1.0,1.0,1.0,1.0,1.0,20.0,,0 days 00:00:00
2023-11-09 13:53:12.410,0.92959034,0.33407396,-0.3582104,0.17558742,0.4937605,-0.30279443,-0.46276978,-0.045057435,0.19117488,0.14748432,-0.3034246,0.20120814,0.5858864,0.27331007,-0.18861835,0.44453588,0.25965196,-0.13013953,-0.59137785,0.27041587,778.86444,808.2784,813.1135,788.1319,753.47986,100.0,0.0,-0.16815185546875,0.05950927734375,0.9818115234375,1.248626708984375,-5.914154052734375,-2.691650390625,388424.9084249084,116780512.82051282,49936776.55677655,71.3455,1.0,1.0,1.0,1.0,1.0,20.0,,0 days 00:00:00.001000
2023-11-09 13:53:12.410,0.92959034,0.33407396,-0.3582104,0.17558742,0.4937605,-0.30279443,-0.46276978,-0.045057435,0.19117488,0.14748432,-0.3034246,0.20120814,0.5858864,0.27331007,-0.18861835,0.44453588,0.25965196,-0.13013953,-0.59137785,0.27041587,782.0879,807.0696,815.12823,793.7729,677.72894,100.0,0.0,-0.16815185546875,0.05950927734375,0.9818115234375,1.248626708984375,-5.914154052734375,-2.691650390625,388424.9084249084,116780512.82051282,49936776.55677655,71.3455,1.0,1.0,1.0,1.0,1.0,20.0,,0 days 00:00:00
2023-11-09 13:53:12.411,0.92959034,0.31231052,-0.29295346,0.17558742,0.4937605,-0.23708495,-0.45253667,-0.045057435,0.19117488,0.18027963,-0.30307683,0.20120814,0.5858864,0.26380515,-0.18872292,0.44453588,0.25965196,-0.10754543,-0.5982331,0.27041587,781.685,803.44324,818.3516,805.4579,830.84247,100.0,0.0,-0.16815185546875,0.05950927734375,0.9818115234375,1.248626708984375,-5.914154052734375,-2.691650390625,388424.9084249084,116780512.82051282,49936776.55677655,71.3455,1.0,1.0,1.0,1.0,1.0,20.0,,0 days 00:00:00.001000
2023-11-09 13:53:12.413,0.92959034,0.31231052,-0.29295346,0.17558742,0.4937605,-0.23708495,-0.45253667,-0.045057435,0.19117488,0.18027963,-0.30307683,0.20120814,0.5858864,0.26380515,-0.18872292,0.44453588,0.25965196,-0.10754543,-0.5982331,0.27041587,768.3883,798.60803,819.9634,813.1135,1067.3627,100.0,0.0,-0.16815185546875,0.05950927734375,0.9818115234375,1.248626708984375,-5.914154052734375,-2.691650390625,388424.9084249084,116780512.82051282,49936776.55677655,71.3455,1.0,1.0,1.0,1.0,1.0,20.0,,0 days 00:00:00.002000
2023-11-09 13:53:12.414,0.92959034,0.31231052,-0.29295346,0.17558742,0.4937605,-0.23708495,-0.45253667,-0.045057435,0.19117488,0.18027963,-0.30307683,0.20120814,0.5858864,0.26380515,-0.18872292,0.44453588,0.25965196,-0.10754543,-0.5982331,0.27041587,754.2857,797.3993,818.7546,793.7729,881.6117,100.0,0.0,-0.16815185546875,0.05950927734375,0.9818115234375,1.248626708984375,-5.914154052734375,-2.691650390625,388424.9084249084,116780512.82051282,49936776.55677655,71.3455,1.0,1.0,1.0,1.0,1.0,20.0,,0 days 00:00:00.001000
2023-11-09 13:53:12.414,0.92959034,0.31231052,-0.29295346,0.17558742,0.4937605,-0.23708495,-0.45253667,-0.045057435,0.19117488,0.18027963,-0.30307683,0.20120814,0.5858864,0.26380515,-0.18872292,0.44453588,0.25965196,-0.10754543,-0.5982331,0.27041587,765.56775,798.60803,810.696,783.2967,746.63007,100.0,0.0,-0.16815185546875,0.05950927734375,0.9818115234375,1.248626708984375,-5.914154052734375,-2.691650390625,388424.9084249084,116780512.82051282,49936776.55677655,71.3455,1.0,1.0,1.0,1.0,1.0,20.0,,0 days 00:00:00
2023-11-09 13:53:12.415,0.92959034,0.31231052,-0.29295346,0.17558742,0.4937605,-0.23708495,-0.45253667,-0.045057435,0.19117488,0.18027963,-0.30307683,0.20120814,0.5858864,0.26380515,-0.18872292,0.44453588,0.25965196,-0.10754543,-0.5982331,0.27041587,767.1795,796.1905,809.0842,788.5348,798.20514,100.0,0.0,-0.16815185546875,0.05950927734375,0.9818115234375,1.248626708984375,-5.914154052734375,-2.691650390625,388424.9084249084,116780512.82051282,49936776.55677655,71.3455,1.0,1.0,1.0,1.0,1.0,20.0,,0 days 00:00:00.001000
2023-11-09 13:53:12.415,0.92959034,0.31231052,-0.29295346,0.17558742,0.4937605,-0.23708495,-0.45253667,-0.045057435,0.19117488,0.18027963,-0.30307683,0.20120814,0.5858864,0.26380515,-0.18872292,0.44453588,0.25965196,-0.10754543,-0.5982331,0.27041587,755.09155,799.41394,812.3077,789.34064,830.84247,100.0,0.0,-0.16815185546875,0.05950927734375,0.9818115234375,1.248626708984375,-5.914154052734375,-2.691650390625,388424.9084249084,116780512.82051282,49936776.55677655,71.3455,1.0,1.0,1.0,1.0,1.0,20.0,,0 days 00:00:00
2023-11-09 13:53:12.416,0.92959034,0.31231052,-0.29295346,0.17558742,0.4937605,-0.23708495,-0.45253667,-0.045057435,0.19117488,0.18027963,-0.30307683,0.20120814,0.5858864,0.26380515,-0.18872292,0.44453588,0.25965196,-0.10754543,-0.5982331,0.27041587,755.09155,801.02563,813.1135,791.3553,772.01465,100.0,0.0,-0.16815185546875,0.05950927734375,0.9818115234375,1.248626708984375,-5.914154052734375,-2.691650390625,388424.9084249084,116780512.82051282,49936776.55677655,71.3455,1.0,1.0,1.0,1.0,1.0,20.0,,0 days 00:00:00.001000
2023-11-09 13:53:12.449,0.92959034,0.31231052,-0.29295346,0.17558742,0.4937605,-0.23708495,-0.45253667,-0.045057435,0.19117488,0.18027963,-0.30307683,0.20120814,0.5858864,0.26380515,-0.18872292,0.44453588,0.25965196,-0.10754543,-0.5982331,0.27041587,761.53845,800.2198,814.7253,792.1612,723.663,100.0,0.0,-0.1611328125,0.0545654296875,0.99139404296875,2.10845947265625,-6.11602783203125,-1.831817626953125,388424.9084249084,116780512.82051282,49936776.55677655,71.3455,1.0,1.0,1.0,1.0,1.0,20.0,,0 days 00:00:00.033000
2023-11-09 13:53:12.449,0.92959034,0.31231052,-0.29295346,0.17558742,0.4937605,-0.23708495,-0.45253667,-0.045057435,0.19117488,0.18027963,-0.30307683,0.20120814,0.5858864,0.26380515,-0.18872292,0.44453588,0.25965196,-0.10754543,-0.5982331,0.27041587,766.77655,799.81683,813.5165,792.5641,810.293,100.0,0.0,-0.1611328125,0.0545654296875,0.99139404296875,2.10845947265625,-6.11602783203125,-1.831817626953125,388424.9084249084,116780512.82051282,49936776.55677655,71.3455,1.0,1.0,1.0,1.0,1.0,20.0,,0 days 00:00:00
2023-11-09 13:53:12.450,0.92959034,0.31231052,-0.29295346,0.17558742,0.4937605,-0.23708495,-0.45253667,-0.045057435,0.19117488,0.18027963,-0.30307683,0.20120814,0.5858864,0.26380515,-0.18872292,0.44453588,0.25965196,-0.10754543,-0.5982331,0.27041587,757.50916,804.65204,817.9487,794.57874,823.5897,100.0,0.0,-0.1611328125,0.0545654296875,0.99139404296875,2.10845947265625,-6.11602783203125,-1.831817626953125,388424.9084249084,116780512.82051282,49936776.55677655,71.3455,1.0,1.0,1.0,1.0,1.0,20.0,,0 days 00:00:00.001000
2023-11-09 13:53:12.450,0.92959034,0.31231052,-0.29295346,0.17558742,0.4937605,-0.23708495,-0.45253667,-0.045057435,0.19117488,0.18027963,-0.30307683,0.20120814,0.5858864,0.26380515,-0.18872292,0.44453588,0.25965196,-0.10754543,-0.5982331,0.27041587,744.61536,802.6374,811.9048,790.14655,724.4689,100.0,0.0,-0.1611328125,0.0545654296875,0.99139404296875,2.10845947265625,-6.11602783203125,-1.831817626953125,388424.9084249084,116780512.82051282,49936776.55677655,71.3455,1.0,1.0,1.0,1.0,1.0,20.0,,0 days 00:00:00
2023-11-09 13:53:12.451,0.92959034,0.31231052,-0.29295346,0.17558742,0.4937605,-0.23708495,-0.45253667,-0.045057435,0.19117488,0.18027963,-0.30307683,0.20120814,0.5858864,0.26380515,-0.18872292,0.44453588,0.25965196,-0.10754543,-0.5982331,0.27041587,754.68866,790.54944,804.65204,782.8938,708.3516,100.0,0.0,-0.1611328125,0.0545654296875,0.99139404296875,2.10845947265625,-6.11602783203125,-1.831817626953125,388424.9084249084,116780512.82051282,49936776.55677655,71.3455,1.0,1.0,1.0,1.0,1.0,20.0,,0 days 00:00:00.001000
2023-11-09 13:53:12.451,0.92959034,0.31231052,-0.29295346,0.17558742,0.4937605,-0.23708495,-0.45253667,-0.045057435,0.19117488,0.18027963,-0.30307683,0.20120814,0.5858864,0.26380515,-0.18872292,0.44453588,0.25965196,-0.10754543,-0.5982331,0.27041587,770.40295,797.3993,808.2784,791.75824,825.6044,100.0,0.0,-0.1611328125,0.0545654296875,0.99139404296875,2.10845947265625,-6.11602783203125,-1.831817626953125,388424.9084249084,116780512.82051282,49936776.55677655,71.3455,1.0,1.0,1.0,1.0,1.0,20.0,,0 days 00:00:00
2023-11-09 13:53:12.452,0.92959034,0.31231052,-0.29295346,0.17558742,0.4937605,-0.23708495,-0.45253667,-0.045057435,0.19117488,0.18027963,-0.30307683,0.20120814,0.5858864,0.26380515,-0.18872292,0.44453588,0.25965196,-0.10754543,-0.5982331,0.27041587,762.74725,806.26373,811.0989,790.14655,827.2161,100.0,0.0,-0.1611328125,0.0545654296875,0.99139404296875,2.10845947265625,-6.11602783203125,-1.831817626953125,388424.9084249084,116780512.82051282,49936776.55677655,71.3455,1.0,1.0,1.0,1.0,1.0,20.0,,0 days 00:00:00.001000
2023-11-09 13:53:12.452,0.92959034,0.31231052,-0.29295346,0.17558742,0.4937605,-0.23708495,-0.45253667,-0.045057435,0.19117488,0.18027963,-0.30307683,0.20120814,0.5858864,0.26380515,-0.18872292,0.44453588,0.25965196,-0.10754543,-0.5982331,0.27041587,749.45056,801.8315,811.0989,778.46155,706.337,100.0,0.0,-0.1611328125,0.0545654296875,0.99139404296875,2.10845947265625,-6.11602783203125,-1.831817626953125,388424.9084249084,116780512.82051282,49936776.55677655,71.3455,1.0,1.0,1.0,1.0,1.0,20.0,,0 days 00:00:00
2023-11-09 13:53:12.453,0.92959034,0.31231052,-0.29295346,0.17558742,0.4937605,-0.23708495,-0.45253667,-0.045057435,0.19117488,0.18027963,-0.30307683,0.20120814,0.5858864,0.26380515,-0.18872292,0.44453588,0.25965196,-0.10754543,-0.5982331,0.27041587,762.3443,806.26373,813.1135,776.4469,700.696,100.0,0.0,-0.1611328125,0.0545654296875,0.99139404296875,2.10845947265625,-6.11602783203125,-1.831817626953125,388424.9084249084,116780512.82051282,49936776.55677655,71.3455,1.0,1.0,1.0,1.0,1.0,20.0,,0 days 00:00:00.001000
2023-11-09 13:53:12.453,0.92959034,0.31231052,-0.29295346,0.17558742,0.4937605,-0.23708495,-0.45253667,-0.045057435,0.19117488,0.18027963,-0.30307683,0.20120814,0.5858864,0.26380515,-0.18872292,0.44453588,0.25965196,-0.10754543,-0.5982331,0.27041587,774.0293,802.6374,812.71063,788.93774,873.95605,100.0,0.0,-0.1611328125,0.0545654296875,0.99139404296875,2.10845947265625,-6.11602783203125,-1.831817626953125,388424.9084249084,116780512.82051282,49936776.55677655,71.3455,1.0,1.0,1.0,1.0,1.0,20.0,,0 days 00:00:00
2023-11-09 13:53:12.454,0.92959034,0.31231052,-0.29295346,0.17558742,0.4937605,-0.23708495,-0.45253667,-0.045057435,0.19117488,0.18027963,-0.30307683,0.20120814,0.5858864,0.26380515,-0.18872292,0.44453588,0.25965196,-0.10754543,-0.5982331,0.27041587,758.71796,794.17584,808.68134,799.011,925.9341,100.0,0.0,-0.1611328125,0.0545654296875,0.99139404296875,2.10845947265625,-6.11602783203125,-1.831817626953125,388424.9084249084,116780512.82051282,49936776.55677655,71.3455,1.0,1.0,1.0,1.0,1.0,20.0,,0 days 00:00:00.001000
2023-11-09 13:53:12.454,0.92959034,0.31231052,-0.29295346,0.17558742,0.4937605,-0.23708495,-0.45253667,-0.045057435,0.19117488,0.18027963,-0.30307683,0.20120814,0.5858864,0.26380515,-0.18872292,0.44453588,0.25965196,-0.10754543,-0.5982331,0.27041587,741.39197,796.99634,807.0696,785.31134,690.6227,100.0,0.0,-0.1611328125,0.0545654296875,0.99139404296875,2.10845947265625,-6.11602783203125,-1.831817626953125,388424.9084249084,116780512.82051282,49936776.55677655,71.3455,1.0,1.0,1.0,1.0,1.0,20.0,,0 days 00:00:00
2023-11-09 13:53:12.521,0.92959034,0.31231052,-0.29295346,0.17558742,0.4937605,-0.23708495,-0.45253667,-0.045057435,0.19117488,0.18027963,-0.30307683,0.20120814,0.5858864,0.26380515,-0.18872292,0.44453588,0.25965196,-0.10754543,-0.5982331,0.27041587,749.0476,801.8315,807.8755,791.75824,699.0842,100.0,0.0,-0.1611328125,0.0545654296875,0.99139404296875,2.10845947265625,-6.11602783203125,-1.831817626953125,387619.0476190476,116726520.14652014,49956923.07692307,70.915634,1.0,1.0,1.0,1.0,1.0,20.0,,0 days 00:00:00.067000
2023-11-09 13:53:12.522,0.92959034,0.31231052,-0.29295346,0.17558742,0.4937605,-0.23708495,-0.45253667,-0.045057435,0.19117488,0.18027963,-0.30307683,0.20120814,0.5858864,0.26380515,-0.18872292,0.44453588,0.25965196,-0.10754543,-0.5982331,0.27041587,754.2857,805.05493,810.696,803.0403,762.3443,100.0,0.0,-0.1611328125,0.0545654296875,0.99139404296875,2.10845947265625,-6.11602783203125,-1.831817626953125,387619.0476190476,116726520.14652014,49956923.07692307,70.915634,1.0,1.0,1.0,1.0,1.0,20.0,,0 days 00:00:00.001000
2023-11-09 13:53:12.523,0.92959034,0.31231052,-0.29295346,0.17558742,0.4937605,-0.23708495,-0.45253667,-0.045057435,0.19117488,0.18027963,-0.30307683,0.20120814,0.5858864,0.26380515,-0.18872292,0.44453588,0.25965196,-0.10754543,-0.5982331,0.27041587,754.2857,803.44324,814.7253,794.57874,752.674,100.0,0.0,-0.1611328125,0.0545654296875,0.99139404296875,2.10845947265625,-6.11602783203125,-1.831817626953125,387619.0476190476,116726520.14652014,49956923.07692307,70.915634,1.0,1.0,1.0,1.0,1.0,20.0,,0 days 00:00:00.001000
2023-11-09 13:53:12.524,0.92959034,0.31231052,-0.29295346,0.17558742,0.4937605,-0.23708495,-0.45253667,-0.045057435,0.19117488,0.18027963,-0.30307683,0.20120814,0.5858864,0.26380515,-0.18872292,0.44453588,0.25965196,-0.10754543,-0.5982331,0.27041587,756.7033,802.6374,815.12823,792.5641,772.8205,100.0,0.0,-0.1611328125,0.0545654296875,0.99139404296875,2.10845947265625,-6.11602783203125,-1.831817626953125,387619.0476190476,116726520.14652014,49956923.07692307,70.915634,1.0,1.0,1.0,1.0,1.0,20.0,,0 days 00:00:00.001000
2023-11-09 13:53:12.524,0.92959034,0.31231052,-0.29295346,0.17558742,0.4937605,-0.23708495,-0.45253667,-0.045057435,0.19117488,0.18027963,-0.30307683,0.20120814,0.5858864,0.26380515,-0.18872292,0.44453588,0.25965196,-0.10754543,-0.5982331,0.27041587,752.674,803.8461,817.9487,798.20514,855.82416,100.0,0.0,-0.1611328125,0.0545654296875,0.99139404296875,2.10845947265625,-6.11602783203125,-1.831817626953125,387619.0476190476,116726520.14652014,49956923.07692307,70.915634,1.0,1.0,1.0,1.0,1.0,20.0,,0 days 00:00:00
2023-11-09 13:53:12.525,0.92959034,0.31231052,-0.29295346,0.17558742,0.4937605,-0.23708495,-0.45253667,-0.045057435,0.19117488,0.18027963,-0.30307683,0.20120814,0.5858864,0.26380515,-0.18872292,0.44453588,0.25965196,-0.10754543,-0.5982331,0.27041587,751.8681,803.0403,819.15753,811.50183,1192.674,100.0,0.0,-0.1611328125,0.0545654296875,0.99139404296875,2.10845947265625,-6.11602783203125,-1.831817626953125,387619.0476190476,116726520.14652014,49956923.07692307,70.915634,1.0,1.0,1.0,1.0,1.0,20.0,,0 days 00:00:00.001000
2023-11-09 13:53:12.525,0.92959034,0.31231052,-0.29295346,0.17558742,0.4937605,-0.23708495,-0.45253667,-0.045057435,0.19117488,0.18027963,-0.30307683,0.20120814,0.5858864,0.26380515,-0.18872292,0.44453588,0.25965196,-0.10754543,-0.5982331,0.27041587,751.4652,807.47253,817.1429,803.44324,1027.0696,100.0,0.0,-0.1611328125,0.0545654296875,0.99139404296875,2.10845947265625,-6.11602783203125,-1.831817626953125,387619.0476190476,116726520.14652014,49956923.07692307,70.915634,1.0,1.0,1.0,1.0,1.0,20.0,,0 days 00:00:00
2023-11-09 13:53:12.526,0.92959034,0.3038658,-0.23914063,0.17558742,0.4937605,-0.19673106,-0.43661484,-0.045057435,0.19117488,0.21227495,-0.2989666,0.20120814,0.5858864,0.25554952,-0.19909689,0.44453588,0.25965196,-0.09083497,-0.6029783,0.27041587,747.4359,809.4872,816.7399,782.8938,718.4249,100.0,0.0,-0.1611328125,0.0545654296875,0.99139404296875,2.10845947265625,-6.11602783203125,-1.831817626953125,387619.0476190476,116726520.14652014,49956923.07692307,70.915634,1.0,1.0,1.0,1.0,1.0,20.0,,0 days 00:00:00.001000
2023-11-09 13:53:12.527,0.92959034,0.3038658,-0.23914063,0.17558742,0.4937605,-0.19673106,-0.43661484,-0.045057435,0.19117488,0.21227495,-0.2989666,0.20120814,0.5858864,0.25554952,-0.19909689,0.44453588,0.25965196,-0.09083497,-0.6029783,0.27041587,750.65936,790.54944,815.5311,789.34064,813.1135,100.0,0.0,-0.1611328125,0.0545654296875,0.99139404296875,2.10845947265625,-6.11602783203125,-1.831817626953125,387619.0476190476,116726520.14652014,49956923.07692307,70.915634,1.0,1.0,1.0,1.0,1.0,20.0,,0 days 00:00:00.001000
2023-11-09 13:53:12.528,0.92959034,0.3038658,-0.23914063,0.17558742,0.4937605,-0.19673106,-0.43661484,-0.045057435,0.19117488,0.21227495,-0.2989666,0.20120814,0.5858864,0.25554952,-0.19909689,0.44453588,0.25965196,-0.09083497,-0.6029783,0.27041587,764.7619,788.93774,816.7399,804.65204,925.12823,100.0,0.0,-0.1611328125,0.0545654296875,0.99139404296875,2.10845947265625,-6.11602783203125,-1.831817626953125,387619.0476190476,116726520.14652014,49956923.07692307,70.915634,1.0,1.0,1.0,1.0,1.0,20.0,,0 days 00:00:00.001000
2023-11-09 13:53:12.529,0.92959034,0.3038658,-0.23914063,0.17558742,0.4937605,-0.19673106,-0.43661484,-0.045057435,0.19117488,0.21227495,-0.2989666,0.20120814,0.5858864,0.25554952,-0.19909689,0.44453588,0.25965196,-0.09083497,-0.6029783,0.27041587,761.9414,800.2198,815.12823,792.1612,813.5165,100.0,0.0,-0.1611328125,0.0545654296875,0.99139404296875,2.10845947265625,-6.11602783203125,-1.831817626953125,387619.0476190476,116726520.14652014,49956923.07692307,70.915634,1.0,1.0,1.0,1.0,1.0,20.0,,0 days 00:00:00.001000
2023-11-09 13:53:12.529,0.92959034,0.3038658,-0.23914063,0.17558742,0.4937605,-0.19673106,-0.43661484,-0.045057435,0.19117488,0.21227495,-0.2989666,0.20120814,0.5858864,0.25554952,-0.19909689,0.44453588,0.25965196,-0.09083497,-0.6029783,0.27041587,767.5824,795.38464,812.3077,795.38464,757.50916,100.0,0.0,-0.1611328125,0.0545654296875,0.99139404296875,2.10845947265625,-6.11602783203125,-1.831817626953125,387619.0476190476,116726520.14652014,49956923.07692307,70.915634,1.0,1.0,1.0,1.0,1.0,20.0,,0 days 00:00:00
2023-11-09 13:53:12.566,0.92959034,0.3038658,-0.23914063,0.17558742,0.4937605,-0.19673106,-0.43661484,-0.045057435,0.19117488,0.21227495,-0.2989666,0.20120814,0.5858864,0.25554952,-0.19909689,0.44453588,0.25965196,-0.09083497,-0.6029783,0.27041587,775.64105,801.02563,812.3077,796.99634,779.2674,100.0,0.0,-0.15643310546875,0.05804443359375,0.99420166015625,2.609405517578125,-6.6693115234375,-0.22430419921875,387619.0476190476,116726520.14652014,49956923.07692307,70.915634,1.0,1.0,1.0,1.0,1.0,20.0,,0 days 00:00:00.037000
2023-11-09 13:53:12.567,0.92959034,0.3038658,-0.23914063,0.17558742,0.4937605,-0.19673106,-0.43661484,-0.045057435,0.19117488,0.21227495,-0.2989666,0.20120814,0.5858864,0.25554952,-0.19909689,0.44453588,0.25965196,-0.09083497,-0.6029783,0.27041587,763.1502,809.0842,811.9048,790.9524,796.5934,100.0,0.0,-0.15643310546875,0.05804443359375,0.99420166015625,2.609405517578125,-6.6693115234375,-0.22430419921875,387619.0476190476,116726520.14652014,49956923.07692307,70.915634,1.0,1.0,1.0,1.0,1.0,20.0,,0 days 00:00:00.001000
2023-11-09 13:53:12.568,0.92959034,0.3038658,-0.23914063,0.17558742,0.4937605,-0.19673106,-0.43661484,-0.045057435,0.19117488,0.21227495,-0.2989666,0.20120814,0.5858864,0.25554952,-0.19909689,0.44453588,0.25965196,-0.09083497,-0.6029783,0.27041587,763.5531,802.23444,811.0989,792.96704,786.52014,100.0,0.0,-0.15643310546875,0.05804443359375,0.99420166015625,2.609405517578125,-6.6693115234375,-0.22430419921875,387619.0476190476,116726520.14652014,49956923.07692307,70.915634,1.0,1.0,1.0,1.0,1.0,20.0,,0 days 00:00:00.001000
