TimeStamp,Delta_TP9,Delta_AF7,Delta_AF8,Delta_TP10,Theta_TP9,Theta_AF7,Theta_AF8,Theta_TP10,Alpha_TP9,Alpha_AF7,Alpha_AF8,Alpha_TP10,Beta_TP9,Beta_AF7,Beta_AF8,Beta_TP10,Gamma_TP9,Gamma_AF7,Gamma_AF8,Gamma_TP10,RAW_TP9,RAW_AF7,RAW_AF8,RAW_TP10,AUX_RIGHT,Mellow,Concentration,Accelerometer_X,Accelerometer_Y,Accelerometer_Z,Gyro_X,Gyro_Y,Gyro_Z,PPG_Ambient,PPG_IR,PPG_Red,Heart_Rate,HeadBandOn,HSI_TP9,HSI_AF7,HSI_AF8,HSI_TP10,Battery,Elements,TimeDifference
2023-11-16 11:35:30.350,0.8092633,0.0,0.5466313,0.0,0.38100156,0.0,-0.09105018,0.0,0.8305705,0.0,0.23699738,0.0,1.0033218,0.0,0.29885665,0.0,1.1418958,0.0,0.17247812,0.0,828.022,664.83514,811.9048,802.6374,905.38464,0.0,0.0,-0.2027587890625,0.07440185546875,0.9891357421875,2.400054931640625,-4.029998779296875,-1.323394775390625,3229084.249084249,121294945.05494504,62519487.179487176,75.0391,1.0,2.0,4.0,1.0,2.0,40.0,,0 days 00:00:00.001000
2023-11-16 11:35:30.350,0.8092633,0.0,0.5466313,0.0,0.38100156,0.0,-0.09105018,0.0,0.8305705,0.0,0.23699738,0.0,1.0033218,0.0,0.29885665,0.0,1.1418958,0.0,0.17247812,0.0,779.67035,886.04395,807.8755,791.75824,808.68134,0.0,0.0,-0.2027587890625,0.07440185546875,0.9891357421875,2.400054931640625,-4.029998779296875,-1.323394775390625,3229084.249084249,121294945.05494504,62519487.179487176,75.0391,1.0,2.0,4.0,1.0,2.0,40.0,,0 days 00:00:00
2023-11-16 11:35:30.404,0.8092633,0.0,0.5466313,0.0,0.38100156,0.0,-0.09105018,0.0,0.8305705,0.0,0.23699738,0.0,1.0033218,0.0,0.29885665,0.0,1.1418958,0.0,0.17247812,0.0,770.40295,954.5421,803.0403,713.5897,714.7985,0.0,0.0,-0.2027587890625,0.07440185546875,0.9891357421875,2.400054931640625,-4.029998779296875,-1.323394775390625,3224249.0842490843,121240146.52014652,62542051.28205128,75.14214,1.0,2.0,4.0,1.0,2.0,40.0,,0 days 00:00:00.054000
2023-11-16 11:35:30.405,0.8092633,0.0,0.5466313,0.0,0.38100156,0.0,-0.09105018,0.0,0.8305705,0.0,0.23699738,0.0,1.0033218,0.0,0.29885665,0.0,1.1418958,0.0,0.17247812,0.0,794.9817,682.1612,807.47253,739.3773,791.75824,0.0,0.0,-0.2027587890625,0.07440185546875,0.9891357421875,2.400054931640625,-4.029998779296875,-1.323394775390625,3224249.0842490843,121240146.52014652,62542051.28205128,75.14214,1.0,2.0,4.0,1.0,2.0,40.0,,0 days 00:00:00.001000
2023-11-16 11:35:30.405,0.8092633,0.0,0.5466313,0.0,0.38100156,0.0,-0.09105018,0.0,0.8305705,0.0,0.23699738,0.0,1.0033218,0.0,0.29885665,0.0,1.1418958,0.0,0.17247812,0.0,802.6374,455.7143,805.8608,853.00366,872.3443,0.0,0.0,-0.2027587890625,0.07440185546875,0.9891357421875,2.400054931640625,-4.029998779296875,-1.323394775390625,3224249.0842490843,121240146.52014652,62542051.28205128,75.14214,1.0,2.0,4.0,1.0,2.0,40.0,,0 days 00:00:00
2023-11-16 11:35:30.406,0.8092633,0.0,0.5466313,0.0,0.38100156,0.0,-0.09105018,0.0,0.8305705,0.0,0.23699738,0.0,1.0033218,0.0,0.29885665,0.0,1.1418958,0.0,0.17247812,0.0,798.60803,756.30035,800.2198,861.4652,806.6667,0.0,0.0,-0.2027587890625,0.07440185546875,0.9891357421875,2.400054931640625,-4.029998779296875,-1.323394775390625,3224249.0842490843,121240146.52014652,62542051.28205128,75.14214,1.0,2.0,4.0,1.0,2.0,40.0,,0 days 00:00:00.001000
2023-11-16 11:35:30.406,0.8092633,0.0,0.5466313,0.0,0.38100156,0.0,-0.09105018,0.0,0.8305705,0.0,0.23699738,0.0,1.0033218,0.0,0.29885665,0.0,1.1418958,0.0,0.17247812,0.0,786.52014,925.12823,796.5934,802.23444,735.7509,0.0,0.0,-0.2027587890625,0.07440185546875,0.9891357421875,2.400054931640625,-4.029998779296875,-1.323394775390625,3224249.0842490843,121240146.52014652,62542051.28205128,75.14214,1.0,2.0,4.0,1.0,2.0,40.0,,0 days 00:00:00
2023-11-16 11:35:30.407,0.8092633,0.0,0.5466313,0.0,0.38100156,0.0,-0.09105018,0.0,0.8305705,0.0,0.23699738,0.0,1.0033218,0.0,0.29885665,0.0,1.1418958,0.0,0.17247812,0.0,807.8755,430.32968,805.8608,840.10986,917.47253,0.0,0.0,-0.2027587890625,0.07440185546875,0.9891357421875,2.400054931640625,-4.029998779296875,-1.323394775390625,3224249.0842490843,121240146.52014652,62542051.28205128,75.14214,1.0,2.0,4.0,1.0,2.0,40.0,,0 days 00:00:00.001000
2023-11-16 11:35:30.407,0.8092633,0.0,0.5466313,0.0,0.38100156,0.0,-0.09105018,0.0,0.8305705,0.0,0.23699738,0.0,1.0033218,0.0,0.29885665,0.0,1.1418958,0.0,0.17247812,0.0,834.0659,33.846153,812.71063,937.2161,1142.7106,0.0,0.0,-0.2027587890625,0.07440185546875,0.9891357421875,2.400054931640625,-4.029998779296875,-1.323394775390625,3224249.0842490843,121240146.52014652,62542051.28205128,75.14214,1.0,2.0,4.0,1.0,2.0,40.0,,0 days 00:00:00
2023-11-16 11:35:30.407,0.8092633,0.0,0.5466313,0.0,0.38100156,0.0,-0.09105018,0.0,0.8305705,0.0,0.23699738,0.0,1.0033218,0.0,0.29885665,0.0,1.1418958,0.0,0.17247812,0.0,804.65204,599.15753,782.8938,944.87177,893.2967,0.0,0.0,-0.2027587890625,0.07440185546875,0.9891357421875,2.400054931640625,-4.029998779296875,-1.323394775390625,3224249.0842490843,121240146.52014652,62542051.28205128,75.14214,1.0,2.0,4.0,1.0,2.0,40.0,,0 days 00:00:00
2023-11-16 11:35:30.408,0.8092633,0.0,0.5466313,0.0,0.38100156,0.0,-0.09105018,0.0,0.8305705,0.0,0.23699738,0.0,1.0033218,0.0,0.29885665,0.0,1.1418958,0.0,0.17247812,0.0,794.9817,963.00366,781.685,880.40295,760.32965,0.0,0.0,-0.2027587890625,0.07440185546875,0.9891357421875,2.400054931640625,-4.029998779296875,-1.323394775390625,3224249.0842490843,121240146.52014652,62542051.28205128,75.14214,1.0,2.0,4.0,1.0,2.0,40.0,,0 days 00:00:00.001000
2023-11-16 11:35:30.408,0.8092633,0.0,0.5466313,0.0,0.38100156,0.0,-0.09105018,0.0,0.8305705,0.0,0.23699738,0.0,1.0033218,0.0,0.29885665,0.0,1.1418958,0.0,0.17247812,0.0,809.89014,657.98535,809.0842,834.0659,859.85345,0.0,0.0,-0.2027587890625,0.07440185546875,0.9891357421875,2.400054931640625,-4.029998779296875,-1.323394775390625,3224249.0842490843,121240146.52014652,62542051.28205128,75.14214,1.0,2.0,4.0,1.0,2.0,40.0,,0 days 00:00:00
2023-11-16 11:35:30.408,0.8092633,0.0,0.5466313,0.0,0.38100156,0.0,-0.09105018,0.0,0.8305705,0.0,0.23699738,0.0,1.0033218,0.0,0.29885665,0.0,1.1418958,0.0,0.17247812,0.0,801.4286,699.0842,815.5311,877.1795,862.27106,0.0,0.0,-0.2027587890625,0.07440185546875,0.9891357421875,2.400054931640625,-4.029998779296875,-1.323394775390625,3224249.0842490843,121240146.52014652,62542051.28205128,75.14214,1.0,2.0,4.0,1.0,2.0,40.0,,0 days 00:00:00
2023-11-16 11:35:30.409,0.8092633,0.0,0.5466313,0.0,0.38100156,0.0,-0.09105018,0.0,0.8305705,0.0,0.23699738,0.0,1.0033218,0.0,0.29885665,0.0,1.1418958,0.0,0.17247812,0.0,788.1319,756.30035,809.89014,935.2015,861.06226,0.0,0.0,-0.2027587890625,0.07440185546875,0.9891357421875,2.400054931640625,-4.029998779296875,-1.323394775390625,3224249.0842490843,121240146.52014652,62542051.28205128,75.14214,1.0,2.0,4.0,1.0,2.0,40.0,,0 days 00:00:00.001000
2023-11-16 11:35:30.474,0.8092633,0.0,0.5466313,0.0,0.38100156,0.0,-0.09105018,0.0,0.8305705,0.0,0.23699738,0.0,1.0033218,0.0,0.29885665,0.0,1.1418958,0.0,0.17247812,0.0,787.326,624.5421,806.6667,892.49084,869.5238,0.0,0.0,-0.194580078125,0.07171630859375,0.9703369140625,2.6019287109375,-3.177642822265625,-2.026214599609375,3224249.0842490843,121240146.52014652,62542051.28205128,75.14214,1.0,2.0,4.0,1.0,2.0,40.0,,0 days 00:00:00.065000
2023-11-16 11:35:30.475,0.8092633,0.0,0.5466313,0.0,0.38100156,0.0,-0.09105018,0.0,0.8305705,0.0,0.23699738,0.0,1.0033218,0.0,0.29885665,0.0,1.1418958,0.0,0.17247812,0.0,798.60803,358.20514,814.3223,848.97437,907.3993,0.0,0.0,-0.194580078125,0.07171630859375,0.9703369140625,2.6019287109375,-3.177642822265625,-2.026214599609375,3224249.0842490843,121240146.52014652,62542051.28205128,75.14214,1.0,2.0,4.0,1.0,2.0,40.0,,0 days 00:00:00.001000
2023-11-16 11:35:30.475,0.8092633,0.0,0.5466313,0.0,0.38100156,0.0,-0.09105018,0.0,0.8305705,0.0,0.23699738,0.0,1.0033218,0.0,0.29885665,0.0,1.1418958,0.0,0.17247812,0.0,787.326,456.52014,807.8755,869.12085,886.8498,0.0,0.0,-0.194580078125,0.07171630859375,0.9703369140625,2.6019287109375,-3.177642822265625,-2.026214599609375,3224249.0842490843,121240146.52014652,62542051.28205128,75.14214,1.0,2.0,4.0,1.0,2.0,40.0,,0 days 00:00:00
2023-11-16 11:35:30.476,0.8092633,0.0,0.5466313,0.0,0.38100156,0.0,-0.09105018,0.0,0.8305705,0.0,0.23699738,0.0,1.0033218,0.0,0.29885665,0.0,1.1418958,0.0,0.17247812,0.0,785.31134,992.4176,795.78754,912.23444,811.9048,0.0,0.0,-0.194580078125,0.07171630859375,0.9703369140625,2.6019287109375,-3.177642822265625,-2.026214599609375,3224249.0842490843,121240146.52014652,62542051.28205128,75.14214,1.0,2.0,4.0,1.0,2.0,40.0,,0 days 00:00:00.001000
2023-11-16 11:35:30.476,0.8092633,0.0,0.5466313,0.0,0.38100156,0.0,-0.09105018,0.0,0.8305705,0.0,0.23699738,0.0,1.0033218,0.0,0.29885665,0.0,1.1418958,0.0,0.17247812,0.0,797.3993,863.8828,800.2198,942.0513,848.5714,0.0,0.0,-0.194580078125,0.07171630859375,0.9703369140625,2.6019287109375,-3.177642822265625,-2.026214599609375,3224249.0842490843,121240146.52014652,62542051.28205128,75.14214,1.0,2.0,4.0,1.0,2.0,40.0,,0 days 00:00:00
2023-11-16 11:35:30.477,0.8092633,0.0,0.5466313,0.0,0.38100156,0.0,-0.09105018,0.0,0.8305705,0.0,0.23699738,0.0,1.0033218,0.0,0.29885665,0.0,1.1418958,0.0,0.17247812,0.0,807.8755,456.52014,807.8755,911.02563,889.67035,0.0,0.0,-0.194580078125,0.07171630859375,0.9703369140625,2.6019287109375,-3.177642822265625,-2.026214599609375,3224249.0842490843,121240146.52014652,62542051.28205128,75.14214,1.0,2.0,4.0,1.0,2.0,40.0,,0 days 00:00:00.001000
2023-11-16 11:35:30.477,0.8092633,0.0,0.5466313,0.0,0.38100156,0.0,-0.09105018,0.0,0.8305705,0.0,0.23699738,0.0,1.0033218,0.0,0.29885665,0.0,1.1418958,0.0,0.17247812,0.0,819.5604,462.16116,804.65204,884.83514,913.0403,0.0,0.0,-0.194580078125,0.07171630859375,0.9703369140625,2.6019287109375,-3.177642822265625,-2.026214599609375,3224249.0842490843,121240146.52014652,62542051.28205128,75.14214,1.0,2.0,4.0,1.0,2.0,40.0,,0 days 00:00:00
2023-11-16 11:35:30.478,0.8092633,0.0,0.5466313,0.0,0.38100156,0.0,-0.09105018,0.0,0.8305705,0.0,0.23699738,0.0,1.0033218,0.0,0.29885665,0.0,1.1418958,0.0,0.17247812,0.0,832.4542,578.20514,807.8755,919.0842,890.87915,0.0,0.0,-0.194580078125,0.07171630859375,0.9703369140625,2.6019287109375,-3.177642822265625,-2.026214599609375,3224249.0842490843,121240146.52014652,62542051.28205128,75.14214,1.0,2.0,4.0,1.0,2.0,40.0,,0 days 00:00:00.001000
2023-11-16 11:35:30.478,0.8092633,0.0,0.5466313,0.0,0.38100156,0.0,-0.09105018,0.0,0.8305705,0.0,0.23699738,0.0,1.0033218,0.0,0.29885665,0.0,1.1418958,0.0,0.17247812,0.0,817.9487,641.8681,789.34064,921.9048,828.4249,0.0,0.0,-0.194580078125,0.07171630859375,0.9703369140625,2.6019287109375,-3.177642822265625,-2.026214599609375,3224249.0842490843,121240146.52014652,62542051.28205128,75.14214,1.0,2.0,4.0,1.0,2.0,40.0,,0 days 00:00:00
2023-11-16 11:35:30.480,0.8092633,0.0,0.5466313,0.0,0.38100156,0.0,-0.09105018,0.0,0.8305705,0.0,0.23699738,0.0,1.0033218,0.0,0.29885665,0.0,1.1418958,0.0,0.17247812,0.0,817.9487,641.8681,789.34064,921.9048,828.4249,0.0,0.0,-0.194580078125,0.07171630859375,0.9703369140625,2.6019287109375,-3.177642822265625,-2.026214599609375,3224249.0842490843,121240146.52014652,62542051.28205128,75.14214,1.0,2.0,4.0,1.0,2.0,40.0,/muse/elements/jaw_clench,0 days 00:00:00.002000
2023-11-16 11:35:30.479,0.8092633,0.0,0.53726035,0.0,0.38100156,0.0,-0.025682127,0.0,0.8305705,0.0,0.29468834,0.0,1.0033218,0.0,0.28705063,0.0,1.1418958,0.0,0.17365338,0.0,815.9341,224.83516,796.99634,866.7033,1036.7399,0.0,0.0,-0.194580078125,0.07171630859375,0.9703369140625,2.6019287109375,-3.177642822265625,-2.026214599609375,3224249.0842490843,121240146.52014652,62542051.28205128,75.14214,1.0,2.0,4.0,1.0,2.0,40.0,/muse/elements/jaw_clench,-1 days +23:59:59.999000
2023-11-16 11:35:30.481,0.8092633,0.0,0.53726035,0.0,0.38100156,0.0,-0.025682127,0.0,0.8305705,0.0,0.29468834,0.0,1.0033218,0.0,0.28705063,0.0,1.1418958,0.0,0.17365338,0.0,808.2784,285.67764,825.6044,792.1612,1004.10254,0.0,0.0,-0.194580078125,0.07171630859375,0.9703369140625,2.6019287109375,-3.177642822265625,-2.026214599609375,3224249.0842490843,121240146.52014652,62542051.28205128,75.14214,1.0,2.0,4.0,1.0,2.0,40.0,/muse/elements/jaw_clench,0 days 00:00:00.002000
2023-11-16 11:35:30.482,0.8092633,0.0,0.53726035,0.0,0.38100156,0.0,-0.025682127,0.0,0.8305705,0.0,0.29468834,0.0,1.0033218,0.0,0.28705063,0.0,1.1418958,0.0,0.17365338,0.0,799.81683,1027.8755,810.293,798.20514,751.8681,0.0,0.0,-0.194580078125,0.07171630859375,0.9703369140625,2.6019287109375,-3.177642822265625,-2.026214599609375,3224249.0842490843,121240146.52014652,62542051.28205128,75.14214,1.0,2.0,4.0,1.0,2.0,40.0,/muse/elements/jaw_clench,0 days 00:00:00.001000
2023-11-16 11:35:30.521,0.8092633,0.0,0.53726035,0.0,0.38100156,0.0,-0.025682127,0.0,0.8305705,0.0,0.29468834,0.0,1.0033218,0.0,0.28705063,0.0,1.1418958,0.0,0.17365338,0.0,817.9487,862.674,807.8755,874.7619,780.4762,0.0,0.0,-0.20330810546875,0.0938720703125,0.9873046875,3.177642822265625,-3.701019287109375,0.186920166015625,3214578.7545787543,121270769.23076925,62547692.307692304,75.23915,1.0,2.0,4.0,1.0,2.0,40.0,/muse/elements/jaw_clench,0 days 00:00:00.039000
2023-11-16 11:35:30.522,0.8092633,0.0,0.53726035,0.0,0.38100156,0.0,-0.025682127,0.0,0.8305705,0.0,0.29468834,0.0,1.0033218,0.0,0.28705063,0.0,1.1418958,0.0,0.17365338,0.0,811.50183,713.9927,815.12823,844.1392,818.7546,0.0,0.0,-0.20330810546875,0.0938720703125,0.9873046875,3.177642822265625,-3.701019287109375,0.186920166015625,3214578.7545787543,121270769.23076925,62547692.307692304,75.23915,1.0,2.0,4.0,1.0,2.0,40.0,/muse/elements/jaw_clench,0 days 00:00:00.001000
2023-11-16 11:35:30.522,0.8092633,0.0,0.53726035,0.0,0.38100156,0.0,-0.025682127,0.0,0.8305705,0.0,0.29468834,0.0,1.0033218,0.0,0.28705063,0.0,1.1418958,0.0,0.17365338,0.0,794.57874,924.7253,813.91943,797.3993,753.8828,0.0,0.0,-0.20330810546875,0.0938720703125,0.9873046875,3.177642822265625,-3.701019287109375,0.186920166015625,3214578.7545787543,121270769.23076925,62547692.307692304,75.23915,1.0,2.0,4.0,1.0,2.0,40.0,/muse/elements/jaw_clench,0 days 00:00:00
2023-11-16 11:35:30.523,0.8092633,0.0,0.53726035,0.0,0.38100156,0.0,-0.025682127,0.0,0.8305705,0.0,0.29468834,0.0,1.0033218,0.0,0.28705063,0.0,1.1418958,0.0,0.17365338,0.0,793.36993,1018.60803,805.8608,849.7802,738.1685,0.0,0.0,-0.20330810546875,0.0938720703125,0.9873046875,3.177642822265625,-3.701019287109375,0.186920166015625,3214578.7545787543,121270769.23076925,62547692.307692304,75.23915,1.0,2.0,4.0,1.0,2.0,40.0,/muse/elements/jaw_clench,0 days 00:00:00.001000
2023-11-16 11:35:30.523,0.8092633,0.0,0.53726035,0.0,0.38100156,0.0,-0.025682127,0.0,0.8305705,0.0,0.29468834,0.0,1.0033218,0.0,0.28705063,0.0,1.1418958,0.0,0.17365338,0.0,813.5165,829.6337,808.68134,912.6374,826.4103,0.0,0.0,-0.20330810546875,0.0938720703125,0.9873046875,3.177642822265625,-3.701019287109375,0.186920166015625,3214578.7545787543,121270769.23076925,62547692.307692304,75.23915,1.0,2.0,4.0,1.0,2.0,40.0,/muse/elements/jaw_clench,0 days 00:00:00
2023-11-16 11:35:30.524,0.8092633,0.0,0.53726035,0.0,0.38100156,0.0,-0.025682127,0.0,0.8305705,0.0,0.29468834,0.0,1.0033218,0.0,0.28705063,0.0,1.1418958,0.0,0.17365338,0.0,811.50183,514.5421,818.7546,900.14655,896.9231,0.0,0.0,-0.20330810546875,0.0938720703125,0.9873046875,3.177642822265625,-3.701019287109375,0.186920166015625,3214578.7545787543,121270769.23076925,62547692.307692304,75.23915,1.0,2.0,4.0,1.0,2.0,40.0,/muse/elements/jaw_clench,0 days 00:00:00.001000
2023-11-16 11:35:30.524,0.8092633,0.0,0.53726035,0.0,0.38100156,0.0,-0.025682127,0.0,0.8305705,0.0,0.29468834,0.0,1.0033218,0.0,0.28705063,0.0,1.1418958,0.0,0.17365338,0.0,829.2308,618.49817,817.1429,850.18317,853.8095,0.0,0.0,-0.20330810546875,0.0938720703125,0.9873046875,3.177642822265625,-3.701019287109375,0.186920166015625,3214578.7545787543,121270769.23076925,62547692.307692304,75.23915,1.0,2.0,4.0,1.0,2.0,40.0,/muse/elements/jaw_clench,0 days 00:00:00
2023-11-16 11:35:30.525,0.8092633,0.0,0.53726035,0.0,0.38100156,0.0,-0.025682127,0.0,0.8305705,0.0,0.29468834,0.0,1.0033218,0.0,0.28705063,0.0,1.1418958,0.0,0.17365338,0.0,836.8865,939.6337,812.71063,854.61536,854.21246,0.0,0.0,-0.20330810546875,0.0938720703125,0.9873046875,3.177642822265625,-3.701019287109375,0.186920166015625,3214578.7545787543,121270769.23076925,62547692.307692304,75.23915,1.0,2.0,4.0,1.0,2.0,40.0,/muse/elements/jaw_clench,0 days 00:00:00.001000
2023-11-16 11:35:30.525,0.8092633,0.0,0.53726035,0.0,0.38100156,0.0,-0.025682127,0.0,0.8305705,0.0,0.29468834,0.0,1.0033218,0.0,0.28705063,0.0,1.1418958,0.0,0.17365338,0.0,797.3993,678.5348,810.293,940.84247,956.55676,0.0,0.0,-0.20330810546875,0.0938720703125,0.9873046875,3.177642822265625,-3.701019287109375,0.186920166015625,3214578.7545787543,121270769.23076925,62547692.307692304,75.23915,1.0,2.0,4.0,1.0,2.0,40.0,/muse/elements/jaw_clench,0 days 00:00:00
2023-11-16 11:35:30.526,0.8092633,0.0,0.53726035,0.0,0.38100156,0.0,-0.025682127,0.0,0.8305705,0.0,0.29468834,0.0,1.0033218,0.0,0.28705063,0.0,1.1418958,0.0,0.17365338,0.0,786.52014,644.68866,808.68134,957.76556,908.20514,0.0,0.0,-0.20330810546875,0.0938720703125,0.9873046875,3.177642822265625,-3.701019287109375,0.186920166015625,3214578.7545787543,121270769.23076925,62547692.307692304,75.23915,1.0,2.0,4.0,1.0,2.0,40.0,/muse/elements/jaw_clench,0 days 00:00:00.001000
2023-11-16 11:35:30.526,0.8092633,0.0,0.53726035,0.0,0.38100156,0.0,-0.025682127,0.0,0.8305705,0.0,0.29468834,0.0,1.0033218,0.0,0.28705063,0.0,1.1418958,0.0,0.17365338,0.0,792.5641,1014.57874,811.9048,840.10986,763.1502,0.0,0.0,-0.20330810546875,0.0938720703125,0.9873046875,3.177642822265625,-3.701019287109375,0.186920166015625,3214578.7545787543,121270769.23076925,62547692.307692304,75.23915,1.0,2.0,4.0,1.0,2.0,40.0,/muse/elements/jaw_clench,0 days 00:00:00
2023-11-16 11:35:30.527,0.8092633,0.0,0.53726035,0.0,0.38100156,0.0,-0.025682127,0.0,0.8305705,0.0,0.29468834,0.0,1.0033218,0.0,0.28705063,0.0,1.1418958,0.0,0.17365338,0.0,805.4579,783.2967,806.26373,799.011,774.43225,0.0,0.0,-0.20330810546875,0.0938720703125,0.9873046875,3.177642822265625,-3.701019287109375,0.186920166015625,3214578.7545787543,121270769.23076925,62547692.307692304,75.23915,1.0,2.0,4.0,1.0,2.0,40.0,/muse/elements/jaw_clench,0 days 00:00:00.001000
2023-11-16 11:35:30.554,0.8092633,0.0,0.53726035,0.0,0.38100156,0.0,-0.025682127,0.0,0.8305705,0.0,0.29468834,0.0,1.0033218,0.0,0.28705063,0.0,1.1418958,0.0,0.17365338,0.0,818.3516,391.64835,808.2784,890.87915,905.78754,0.0,0.0,-0.1976318359375,0.079345703125,0.97613525390625,1.89910888671875,-3.745880126953125,1.36077880859375,3214578.7545787543,121270769.23076925,62547692.307692304,75.23915,1.0,2.0,4.0,1.0,2.0,40.0,/muse/elements/jaw_clench,0 days 00:00:00.027000
2023-11-16 11:35:30.555,0.8092633,0.0,0.53726035,0.0,0.38100156,0.0,-0.025682127,0.0,0.8305705,0.0,0.29468834,0.0,1.0033218,0.0,0.28705063,0.0,1.1418958,0.0,0.17365338,0.0,817.9487,519.3773,814.7253,917.8755,837.28937,0.0,0.0,-0.1976318359375,0.079345703125,0.97613525390625,1.89910888671875,-3.745880126953125,1.36077880859375,3214578.7545787543,121270769.23076925,62547692.307692304,75.23915,1.0,2.0,4.0,1.0,2.0,40.0,/muse/elements/jaw_clench,0 days 00:00:00.001000
2023-11-16 11:35:30.556,0.8092633,0.0,0.53726035,0.0,0.38100156,0.0,-0.025682127,0.0,0.8305705,0.0,0.29468834,0.0,1.0033218,0.0,0.28705063,0.0,1.1418958,0.0,0.17365338,0.0,799.41394,965.42126,803.0403,836.08057,761.9414,0.0,0.0,-0.1976318359375,0.079345703125,0.97613525390625,1.89910888671875,-3.745880126953125,1.36077880859375,3214578.7545787543,121270769.23076925,62547692.307692304,75.23915,1.0,2.0,4.0,1.0,2.0,40.0,/muse/elements/jaw_clench,0 days 00:00:00.001000
2023-11-16 11:35:30.556,0.8092633,0.0,0.53726035,0.0,0.38100156,0.0,-0.025682127,0.0,0.8305705,0.0,0.29468834,0.0,1.0033218,0.0,0.28705063,0.0,1.1418958,0.0,0.17365338,0.0,804.65204,956.55676,794.9817,801.02563,725.2747,0.0,0.0,-0.1976318359375,0.079345703125,0.97613525390625,1.89910888671875,-3.745880126953125,1.36077880859375,3214578.7545787543,121270769.23076925,62547692.307692304,75.23915,1.0,2.0,4.0,1.0,2.0,40.0,/muse/elements/jaw_clench,0 days 00:00:00
2023-11-16 11:35:30.557,0.8092633,0.0,0.53726035,0.0,0.38100156,0.0,-0.025682127,0.0,0.8305705,0.0,0.29468834,0.0,1.0033218,0.0,0.28705063,0.0,1.1418958,0.0,0.17365338,0.0,833.2601,438.38828,800.6227,892.49084,856.63007,0.0,0.0,-0.1976318359375,0.079345703125,0.97613525390625,1.89910888671875,-3.745880126953125,1.36077880859375,3214578.7545787543,121270769.23076925,62547692.307692304,75.23915,1.0,2.0,4.0,1.0,2.0,40.0,/muse/elements/jaw_clench,0 days 00:00:00.001000
2023-11-16 11:35:30.557,0.8092633,0.0,0.53726035,0.0,0.38100156,0.0,-0.025682127,0.0,0.8305705,0.0,0.29468834,0.0,1.0033218,0.0,0.28705063,0.0,1.1418958,0.0,0.17365338,0.0,853.00366,0.0,803.0403,969.45056,1303.8828,0.0,0.0,-0.1976318359375,0.079345703125,0.97613525390625,1.89910888671875,-3.745880126953125,1.36077880859375,3214578.7545787543,121270769.23076925,62547692.307692304,75.23915,1.0,2.0,4.0,1.0,2.0,40.0,/muse/elements/jaw_clench,0 days 00:00:00
2023-11-16 11:35:30.558,0.8092633,0.0,0.53726035,0.0,0.38100156,0.0,-0.025682127,0.0,0.8305705,0.0,0.29468834,0.0,1.0033218,0.0,0.28705063,0.0,1.1418958,0.0,0.17365338,0.0,829.6337,114.83517,811.9048,859.0476,1210.0,0.0,0.0,-0.1976318359375,0.079345703125,0.97613525390625,1.89910888671875,-3.745880126953125,1.36077880859375,3214578.7545787543,121270769.23076925,62547692.307692304,75.23915,1.0,2.0,4.0,1.0,2.0,40.0,/muse/elements/jaw_clench,0 days 00:00:00.001000
2023-11-16 11:35:30.558,0.8092633,0.0,0.53726035,0.0,0.38100156,0.0,-0.025682127,0.0,0.8305705,0.0,0.29468834,0.0,1.0033218,0.0,0.28705063,0.0,1.1418958,0.0,0.17365338,0.0,807.8755,593.91943,816.7399,738.1685,794.9817,0.0,0.0,-0.1976318359375,0.079345703125,0.97613525390625,1.89910888671875,-3.745880126953125,1.36077880859375,3214578.7545787543,121270769.23076925,62547692.307692304,75.23915,1.0,2.0,4.0,1.0,2.0,40.0,/muse/elements/jaw_clench,0 days 00:00:00
2023-11-16 11:35:30.558,0.8092633,0.0,0.53726035,0.0,0.38100156,0.0,-0.025682127,0.0,0.8305705,0.0,0.29468834,0.0,1.0033218,0.0,0.28705063,0.0,1.1418958,0.0,0.17365338,0.0,843.3333,753.0769,811.9048,759.5238,713.1868,0.0,0.0,-0.1976318359375,0.079345703125,0.97613525390625,1.89910888671875,-3.745880126953125,1.36077880859375,3214578.7545787543,121270769.23076925,62547692.307692304,75.23915,1.0,2.0,4.0,1.0,2.0,40.0,/muse/elements/jaw_clench,0 days 00:00:00
2023-11-16 11:35:30.559,0.8092633,0.0,0.53726035,0.0,0.38100156,0.0,-0.025682127,0.0,0.8305705,0.0,0.29468834,0.0,1.0033218,0.0,0.28705063,0.0,1.1418958,0.0,0.17365338,0.0,831.2454,925.5311,817.5458,785.31134,693.0403,0.0,0.0,-0.1976318359375,0.079345703125,0.97613525390625,1.89910888671875,-3.745880126953125,1.36077880859375,3214578.7545787543,121270769.23076925,62547692.307692304,75.23915,1.0,2.0,4.0,1.0,2.0,40.0,/muse/elements/jaw_clench,0 days 00:00:00.001000
2023-11-16 11:35:30.559,0.8092633,0.0,0.53726035,0.0,0.38100156,0.0,-0.025682127,0.0,0.8305705,0.0,0.29468834,0.0,1.0033218,0.0,0.28705063,0.0,1.1418958,0.0,0.17365338,0.0,801.4286,1098.7913,804.65204,752.27106,664.0293,0.0,0.0,-0.1976318359375,0.079345703125,0.97613525390625,1.89910888671875,-3.745880126953125,1.36077880859375,3214578.7545787543,121270769.23076925,62547692.307692304,75.23915,1.0,2.0,4.0,1.0,2.0,40.0,/muse/elements/jaw_clench,0 days 00:00:00
2023-11-16 11:35:30.560,0.8092633,0.0,0.5296955,0.0,0.38100156,0.0,0.026424931,0.0,0.8305705,0.0,0.32485306,0.0,1.0033218,0.0,0.27300733,0.0,1.1418958,0.0,0.17251761,0.0,803.0403,804.2491,801.4286,676.9231,757.50916,0.0,0.0,-0.1976318359375,0.079345703125,0.97613525390625,1.89910888671875,-3.745880126953125,1.36077880859375,3214578.7545787543,121270769.23076925,62547692.307692304,75.23915,1.0,2.0,4.0,1.0,2.0,40.0,/muse/elements/jaw_clench,0 days 00:00:00.001000
2023-11-16 11:35:30.600,0.8092633,0.0,0.5296955,0.0,0.38100156,0.0,0.026424931,0.0,0.8305705,0.0,0.32485306,0.0,1.0033218,0.0,0.27300733,0.0,1.1418958,0.0,0.17251761,0.0,805.4579,479.8901,807.8755,655.9707,806.26373,0.0,0.0,-0.20880126953125,0.07989501953125,0.9813232421875,1.7047119140625,-5.45806884765625,-1.2261962890625,3213772.8937728936,121076556.77655676,62490476.19047619,75.40732,1.0,2.0,4.0,1.0,2.0,40.0,/muse/elements/jaw_clench,0 days 00:00:00.040000
2023-11-16 11:35:30.601,0.8092633,0.0,0.5296955,0.0,0.38100156,0.0,0.026424931,0.0,0.8305705,0.0,0.32485306,0.0,1.0033218,0.0,0.27300733,0.0,1.1418958,0.0,0.17251761,0.0,791.3553,808.68134,795.78754,701.50183,720.84247,0.0,0.0,-0.20880126953125,0.07989501953125,0.9813232421875,1.7047119140625,-5.45806884765625,-1.2261962890625,3213772.8937728936,121076556.77655676,62490476.19047619,75.40732,1.0,2.0,4.0,1.0,2.0,40.0,/muse/elements/jaw_clench,0 days 00:00:00.001000
2023-11-16 11:35:30.602,0.8092633,0.0,0.5296955,0.0,0.38100156,0.0,0.026424931,0.0,0.8305705,0.0,0.32485306,0.0,1.0033218,0.0,0.27300733,0.0,1.1418958,0.0,0.17251761,0.0,796.99634,1135.0549,807.0696,720.84247,726.4835,0.0,0.0,-0.20880126953125,0.07989501953125,0.9813232421875,1.7047119140625,-5.45806884765625,-1.2261962890625,3213772.8937728936,121076556.77655676,62490476.19047619,75.40732,1.0,2.0,4.0,1.0,2.0,40.0,/muse/elements/jaw_clench,0 days 00:00:00.001000
2023-11-16 11:35:30.602,0.8092633,0.0,0.5296955,0.0,0.38100156,0.0,0.026424931,0.0,0.8305705,0.0,0.32485306,0.0,1.0033218,0.0,0.27300733,0.0,1.1418958,0.0,0.17251761,0.0,811.50183,697.47253,808.2784,660.80585,834.0659,0.0,0.0,-0.20880126953125,0.07989501953125,0.9813232421875,1.7047119140625,-5.45806884765625,-1.2261962890625,3213772.8937728936,121076556.77655676,62490476.19047619,75.40732,1.0,2.0,4.0,1.0,2.0,40.0,/muse/elements/jaw_clench,0 days 00:00:00
2023-11-16 11:35:30.603,0.8092633,0.0,0.5296955,0.0,0.38100156,0.0,0.026424931,0.0,0.8305705,0.0,0.32485306,0.0,1.0033218,0.0,0.27300733,0.0,1.1418958,0.0,0.17251761,0.0,809.0842,342.49084,790.9524,620.9158,804.65204,0.0,0.0,-0.20880126953125,0.07989501953125,0.9813232421875,1.7047119140625,-5.45806884765625,-1.2261962890625,3213772.8937728936,121076556.77655676,62490476.19047619,75.40732,1.0,2.0,4.0,1.0,2.0,40.0,/muse/elements/jaw_clench,0 days 00:00:00.001000
2023-11-16 11:35:30.603,0.8092633,0.0,0.5296955,0.0,0.38100156,0.0,0.026424931,0.0,0.8305705,0.0,0.32485306,0.0,1.0033218,0.0,0.27300733,0.0,1.1418958,0.0,0.17251761,0.0,801.8315,585.4579,791.3553,688.20514,741.39197,0.0,0.0,-0.20880126953125,0.07989501953125,0.9813232421875,1.7047119140625,-5.45806884765625,-1.2261962890625,3213772.8937728936,121076556.77655676,62490476.19047619,75.40732,1.0,2.0,4.0,1.0,2.0,40.0,/muse/elements/jaw_clench,0 days 00:00:00
2023-11-16 11:35:30.604,0.8092633,0.0,0.5296955,0.0,0.38100156,0.0,0.026424931,0.0,0.8305705,0.0,0.32485306,0.0,1.0033218,0.0,0.27300733,0.0,1.1418958,0.0,0.17251761,0.0,807.0696,641.06226,804.65204,730.5128,760.7326,0.0,0.0,-0.20880126953125,0.07989501953125,0.9813232421875,1.7047119140625,-5.45806884765625,-1.2261962890625,3213772.8937728936,121076556.77655676,62490476.19047619,75.40732,1.0,2.0,4.0,1.0,2.0,40.0,/muse/elements/jaw_clench,0 days 00:00:00.001000
2023-11-16 11:35:30.604,0.8092633,0.0,0.5296955,0.0,0.38100156,0.0,0.026424931,0.0,0.8305705,0.0,0.32485306,0.0,1.0033218,0.0,0.27300733,0.0,1.1418958,0.0,0.17251761,0.0,830.84247,330.80585,802.6374,673.69965,778.86444,0.0,0.0,-0.20880126953125,0.07989501953125,0.9813232421875,1.7047119140625,-5.45806884765625,-1.2261962890625,3213772.8937728936,121076556.77655676,62490476.19047619,75.40732,1.0,2.0,4.0,1.0,2.0,40.0,/muse/elements/jaw_clench,0 days 00:00:00
2023-11-16 11:35:30.605,0.8092633,0.0,0.5296955,0.0,0.38100156,0.0,0.026424931,0.0,0.8305705,0.0,0.32485306,0.0,1.0033218,0.0,0.27300733,0.0,1.1418958,0.0,0.17251761,0.0,830.0366,149.8901,801.4286,624.1392,892.0879,0.0,0.0,-0.20880126953125,0.07989501953125,0.9813232421875,1.7047119140625,-5.45806884765625,-1.2261962890625,3213772.8937728936,121076556.77655676,62490476.19047619,75.40732,1.0,2.0,4.0,1.0,2.0,40.0,/muse/elements/jaw_clench,0 days 00:00:00.001000
2023-11-16 11:35:30.605,0.8092633,0.0,0.5296955,0.0,0.38100156,0.0,0.026424931,0.0,0.8305705,0.0,0.32485306,0.0,1.0033218,0.0,0.27300733,0.0,1.1418958,0.0,0.17251761,0.0,794.9817,757.9121,789.7436,637.4359,770.80585,0.0,0.0,-0.20880126953125,0.07989501953125,0.9813232421875,1.7047119140625,-5.45806884765625,-1.2261962890625,3213772.8937728936,121076556.77655676,62490476.19047619,75.40732,1.0,2.0,4.0,1.0,2.0,40.0,/muse/elements/jaw_clench,0 days 00:00:00
2023-11-16 11:35:30.605,0.8092633,0.0,0.5296955,0.0,0.38100156,0.0,0.026424931,0.0,0.8305705,0.0,0.32485306,0.0,1.0033218,0.0,0.27300733,0.0,1.1418958,0.0,0.17251761,0.0,798.20514,1018.20514,787.72894,696.6667,655.56775,0.0,0.0,-0.20880126953125,0.07989501953125,0.9813232421875,1.7047119140625,-5.45806884765625,-1.2261962890625,3213772.8937728936,121076556.77655676,62490476.19047619,75.40732,1.0,2.0,4.0,1.0,2.0,40.0,/muse/elements/jaw_clench,0 days 00:00:00
2023-11-16 11:35:30.606,0.8092633,0.0,0.5296955,0.0,0.38100156,0.0,0.026424931,0.0,0.8305705,0.0,0.32485306,0.0,1.0033218,0.0,0.27300733,0.0,1.1418958,0.0,0.17251761,0.0,795.38464,606.0073,813.5165,671.28204,753.8828,0.0,0.0,-0.20880126953125,0.07989501953125,0.9813232421875,1.7047119140625,-5.45806884765625,-1.2261962890625,3213772.8937728936,121076556.77655676,62490476.19047619,75.40732,1.0,2.0,4.0,1.0,2.0,40.0,/muse/elements/jaw_clench,0 days 00:00:00.001000
2023-11-16 11:35:30.639,0.8092633,0.0,0.5296955,0.0,0.38100156,0.0,0.026424931,0.0,0.8305705,0.0,0.32485306,0.0,1.0033218,0.0,0.27300733,0.0,1.1418958,0.0,0.17251761,0.0,789.34064,535.09155,822.7839,573.36993,781.685,0.0,0.0,-0.20880126953125,0.07989501953125,0.9813232421875,1.7047119140625,-5.45806884765625,-1.2261962890625,3213772.8937728936,121076556.77655676,62490476.19047619,75.40732,1.0,2.0,4.0,1.0,2.0,40.0,/muse/elements/jaw_clench,0 days 00:00:00.033000
2023-11-16 11:35:30.640,0.8092633,0.0,0.5296955,0.0,0.38100156,0.0,0.026424931,0.0,0.8305705,0.0,0.32485306,0.0,1.0033218,0.0,0.27300733,0.0,1.1418958,0.0,0.17251761,0.0,780.87915,867.50916,790.14655,566.9231,642.674,0.0,0.0,-0.20880126953125,0.07989501953125,0.9813232421875,1.7047119140625,-5.45806884765625,-1.2261962890625,3213772.8937728936,121076556.77655676,62490476.19047619,75.40732,1.0,2.0,4.0,1.0,2.0,40.0,/muse/elements/jaw_clench,0 days 00:00:00.001000
2023-11-16 11:35:30.641,0.8092633,0.0,0.5296955,0.0,0.38100156,0.0,0.026424931,0.0,0.8305705,0.0,0.32485306,0.0,1.0033218,0.0,0.27300733,0.0,1.1418958,0.0,0.17251761,0.0,788.5348,857.8388,785.31134,635.82416,680.9524,0.0,0.0,-0.20880126953125,0.07989501953125,0.9813232421875,1.7047119140625,-5.45806884765625,-1.2261962890625,3213772.8937728936,121076556.77655676,62490476.19047619,75.40732,1.0,2.0,4.0,1.0,2.0,40.0,/muse/elements/jaw_clench,0 days 00:00:00.001000
2023-11-16 11:35:30.641,0.8092633,0.0,0.5296955,0.0,0.38100156,0.0,0.026424931,0.0,0.8305705,0.0,0.32485306,0.0,1.0033218,0.0,0.27300733,0.0,1.1418958,0.0,0.17251761,0.0,824.7985,322.34433,810.696,662.4176,921.50183,0.0,0.0,-0.20880126953125,0.07989501953125,0.9813232421875,1.7047119140625,-5.45806884765625,-1.2261962890625,3213772.8937728936,121076556.77655676,62490476.19047619,75.40732,1.0,2.0,4.0,1.0,2.0,40.0,/muse/elements/jaw_clench,0 days 00:00:00
2023-11-16 11:35:30.642,0.8092633,0.0,0.5296955,0.0,0.38100156,0.0,0.026424931,0.0,0.8305705,0.0,0.32485306,0.0,1.0033218,0.0,0.27300733,0.0,1.1418958,0.0,0.17251761,0.0,818.3516,228.46153,809.0842,637.03296,870.32965,0.0,0.0,-0.20880126953125,0.07989501953125,0.9813232421875,1.7047119140625,-5.45806884765625,-1.2261962890625,3213772.8937728936,121076556.77655676,62490476.19047619,75.40732,1.0,2.0,4.0,1.0,2.0,40.0,/muse/elements/jaw_clench,0 days 00:00:00.001000
2023-11-16 11:35:30.642,0.8092633,0.0,0.5296955,0.0,0.38100156,0.0,0.026424931,0.0,0.8305705,0.0,0.32485306,0.0,1.0033218,0.0,0.27300733,0.0,1.1418958,0.0,0.17251761,0.0,796.5934,589.0842,806.26373,656.77655,712.7839,0.0,0.0,-0.20880126953125,0.07989501953125,0.9813232421875,1.7047119140625,-5.45806884765625,-1.2261962890625,3213772.8937728936,121076556.77655676,62490476.19047619,75.40732,1.0,2.0,4.0,1.0,2.0,40.0,/muse/elements/jaw_clench,0 days 00:00:00
2023-11-16 11:35:30.643,0.8092633,0.0,0.5296955,0.0,0.38100156,0.0,0.026424931,0.0,0.8305705,0.0,0.32485306,0.0,1.0033218,0.0,0.27300733,0.0,1.1418958,0.0,0.17251761,0.0,795.78754,546.3736,807.0696,748.24176,728.49817,0.0,0.0,-0.20880126953125,0.07989501953125,0.9813232421875,1.7047119140625,-5.45806884765625,-1.2261962890625,3213772.8937728936,121076556.77655676,62490476.19047619,75.40732,1.0,2.0,4.0,1.0,2.0,40.0,/muse/elements/jaw_clench,0 days 00:00:00.001000
2023-11-16 11:35:30.643,0.8092633,0.0,0.5296955,0.0,0.38100156,0.0,0.026424931,0.0,0.8305705,0.0,0.32485306,0.0,1.0033218,0.0,0.27300733,0.0,1.1418958,0.0,0.17251761,0.0,815.5311,158.35165,802.6374,814.3223,892.49084,0.0,0.0,-0.20880126953125,0.07989501953125,0.9813232421875,1.7047119140625,-5.45806884765625,-1.2261962890625,3213772.8937728936,121076556.77655676,62490476.19047619,75.40732,1.0,2.0,4.0,1.0,2.0,40.0,/muse/elements/jaw_clench,0 days 00:00:00
2023-11-16 11:35:30.644,0.8092633,0.0,0.5296955,0.0,0.38100156,0.0,0.026424931,0.0,0.8305705,0.0,0.32485306,0.0,1.0033218,0.0,0.27300733,0.0,1.1418958,0.0,0.17251761,0.0,812.71063,197.83882,795.78754,750.65936,959.3773,0.0,0.0,-0.20880126953125,0.07989501953125,0.9813232421875,1.7047119140625,-5.45806884765625,-1.2261962890625,3213772.8937728936,121076556.77655676,62490476.19047619,75.40732,1.0,2.0,4.0,1.0,2.0,40.0,/muse/elements/jaw_clench,0 days 00:00:00.001000
2023-11-16 11:35:30.644,0.8092633,0.0,0.5296955,0.0,0.38100156,0.0,0.026424931,0.0,0.8305705,0.0,0.32485306,0.0,1.0033218,0.0,0.27300733,0.0,1.1418958,0.0,0.17251761,0.0,776.4469,886.4469,796.99634,659.19415,686.99634,0.0,0.0,-0.20880126953125,0.07989501953125,0.9813232421875,1.7047119140625,-5.45806884765625,-1.2261962890625,3213772.8937728936,121076556.77655676,62490476.19047619,75.40732,1.0,2.0,4.0,1.0,2.0,40.0,/muse/elements/jaw_clench,0 days 00:00:00
2023-11-16 11:35:30.644,0.8092633,0.0,0.5296955,0.0,0.38100156,0.0,0.026424931,0.0,0.8305705,0.0,0.32485306,0.0,1.0033218,0.0,0.27300733,0.0,1.1418958,0.0,0.17251761,0.0,792.1612,835.2747,791.3553,723.2601,660.80585,0.0,0.0,-0.20880126953125,0.07989501953125,0.9813232421875,1.7047119140625,-5.45806884765625,-1.2261962890625,3213772.8937728936,121076556.77655676,62490476.19047619,75.40732,1.0,2.0,4.0,1.0,2.0,40.0,/muse/elements/jaw_clench,0 days 00:00:00
2023-11-16 11:35:30.645,0.8092633,0.0,0.5296955,0.0,0.38100156,0.0,0.026424931,0.0,0.8305705,0.0,0.32485306,0.0,1.0033218,0.0,0.27300733,0.0,1.1418958,0.0,0.17251761,0.0,814.3223,683.7729,784.5055,782.8938,730.5128,0.0,0.0,-0.20880126953125,0.07989501953125,0.9813232421875,1.7047119140625,-5.45806884765625,-1.2261962890625,3213772.8937728936,121076556.77655676,62490476.19047619,75.40732,1.0,2.0,4.0,1.0,2.0,40.0,/muse/elements/jaw_clench,0 days 00:00:00.001000
2023-11-16 11:35:30.673,0.8092633,0.0,0.5296955,0.0,0.38100156,0.0,0.026424931,0.0,0.8305705,0.0,0.32485306,0.0,1.0033218,0.0,0.27300733,0.0,1.1418958,0.0,0.17251761,0.0,802.23444,925.12823,796.5934,714.3956,730.5128,0.0,0.0,-0.20794677734375,0.073974609375,0.9884033203125,2.340240478515625,-5.734710693359375,-1.15142822265625,3193626.3736263737,120900073.26007326,62443736.26373626,75.58055,1.0,2.0,4.0,1.0,2.0,40.0,/muse/elements/jaw_clench,0 days 00:00:00.028000
2023-11-16 11:35:30.674,0.8092633,0.0,0.507463,0.0,0.38100156,0.0,0.07655348,0.0,0.8305705,0.0,0.33187237,0.0,1.0033218,0.0,0.26303646,0.0,1.1418958,0.0,0.17068422,0.0,766.77655,1070.989,805.05493,674.10254,741.79486,0.0,0.0,-0.20794677734375,0.073974609375,0.9884033203125,2.340240478515625,-5.734710693359375,-1.15142822265625,3193626.3736263737,120900073.26007326,62443736.26373626,75.58055,1.0,2.0,4.0,1.0,2.0,40.0,/muse/elements/jaw_clench,0 days 00:00:00.001000
2023-11-16 11:35:30.676,0.8092633,0.0,0.507463,0.0,0.38100156,0.0,0.07655348,0.0,0.8305705,0.0,0.33187237,0.0,1.0033218,0.0,0.26303646,0.0,1.1418958,0.0,0.17068422,0.0,761.53845,859.85345,802.23444,773.6264,810.696,0.0,0.0,-0.20794677734375,0.073974609375,0.9884033203125,2.340240478515625,-5.734710693359375,-1.15142822265625,3193626.3736263737,120900073.26007326,62443736.26373626,75.58055,1.0,2.0,4.0,1.0,2.0,40.0,/muse/elements/jaw_clench,0 days 00:00:00.002000
2023-11-16 11:35:30.676,0.8092633,0.0,0.507463,0.0,0.38100156,0.0,0.07655348,0.0,0.8305705,0.0,0.33187237,0.0,1.0033218,0.0,0.26303646,0.0,1.1418958,0.0,0.17068422,0.0,785.31134,815.5311,802.23444,877.1795,867.9121,0.0,0.0,-0.20794677734375,0.073974609375,0.9884033203125,2.340240478515625,-5.734710693359375,-1.15142822265625,3193626.3736263737,120900073.26007326,62443736.26373626,75.58055,1.0,2.0,4.0,1.0,2.0,40.0,/muse/elements/jaw_clench,0 days 00:00:00
2023-11-16 11:35:30.677,0.8092633,0.0,0.507463,0.0,0.38100156,0.0,0.07655348,0.0,0.8305705,0.0,0.33187237,0.0,1.0033218,0.0,0.26303646,0.0,1.1418958,0.0,0.17068422,0.0,786.52014,973.8828,802.6374,882.01465,778.0586,0.0,0.0,-0.20794677734375,0.073974609375,0.9884033203125,2.340240478515625,-5.734710693359375,-1.15142822265625,3193626.3736263737,120900073.26007326,62443736.26373626,75.58055,1.0,2.0,4.0,1.0,2.0,40.0,/muse/elements/jaw_clench,0 days 00:00:00.001000
2023-11-16 11:35:30.677,0.8092633,0.0,0.507463,0.0,0.38100156,0.0,0.07655348,0.0,0.8305705,0.0,0.33187237,0.0,1.0033218,0.0,0.26303646,0.0,1.1418958,0.0,0.17068422,0.0,790.54944,789.7436,800.2198,853.8095,721.6484,0.0,0.0,-0.20794677734375,0.073974609375,0.9884033203125,2.340240478515625,-5.734710693359375,-1.15142822265625,3193626.3736263737,120900073.26007326,62443736.26373626,75.58055,1.0,2.0,4.0,1.0,2.0,40.0,/muse/elements/jaw_clench,0 days 00:00:00
2023-11-16 11:35:30.677,0.8092633,0.0,0.507463,0.0,0.38100156,0.0,0.07655348,0.0,0.8305705,0.0,0.33187237,0.0,1.0033218,0.0,0.26303646,0.0,1.1418958,0.0,0.17068422,0.0,813.5165,410.989,810.293,906.1905,990.0,0.0,0.0,-0.20794677734375,0.073974609375,0.9884033203125,2.340240478515625,-5.734710693359375,-1.15142822265625,3193626.3736263737,120900073.26007326,62443736.26373626,75.58055,1.0,2.0,4.0,1.0,2.0,40.0,/muse/elements/jaw_clench,0 days 00:00:00
2023-11-16 11:35:30.677,0.8092633,0.0,0.507463,0.0,0.38100156,0.0,0.07655348,0.0,0.8305705,0.0,0.33187237,0.0,1.0033218,0.0,0.26303646,0.0,1.1418958,0.0,0.17068422,0.0,806.6667,198.24176,817.5458,999.2674,1186.227,0.0,0.0,-0.20794677734375,0.073974609375,0.9884033203125,2.340240478515625,-5.734710693359375,-1.15142822265625,3193626.3736263737,120900073.26007326,62443736.26373626,75.58055,1.0,2.0,4.0,1.0,2.0,40.0,/muse/elements/jaw_clench,0 days 00:00:00
2023-11-16 11:35:30.678,0.8092633,0.0,0.507463,0.0,0.38100156,0.0,0.07655348,0.0,0.8305705,0.0,0.33187237,0.0,1.0033218,0.0,0.26303646,0.0,1.1418958,0.0,0.17068422,0.0,770.40295,825.6044,814.7253,986.3736,944.0659,0.0,0.0,-0.20794677734375,0.073974609375,0.9884033203125,2.340240478515625,-5.734710693359375,-1.15142822265625,3193626.3736263737,120900073.26007326,62443736.26373626,75.58055,1.0,2.0,4.0,1.0,2.0,40.0,/muse/elements/jaw_clench,0 days 00:00:00.001000
2023-11-16 11:35:30.678,0.8092633,0.0,0.507463,0.0,0.38100156,0.0,0.07655348,0.0,0.8305705,0.0,0.33187237,0.0,1.0033218,0.0,0.26303646,0.0,1.1418958,0.0,0.17068422,0.0,776.04395,1236.5934,805.05493,906.1905,777.6557,0.0,0.0,-0.20794677734375,0.073974609375,0.9884033203125,2.340240478515625,-5.734710693359375,-1.15142822265625,3193626.3736263737,120900073.26007326,62443736.26373626,75.58055,1.0,2.0,4.0,1.0,2.0,40.0,/muse/elements/jaw_clench,0 days 00:00:00
2023-11-16 11:35:30.678,0.8092633,0.0,0.507463,0.0,0.38100156,0.0,0.07655348,0.0,0.8305705,0.0,0.33187237,0.0,1.0033218,0.0,0.26303646,0.0,1.1418958,0.0,0.17068422,0.0,824.3956,610.4396,801.4286,934.7985,919.0842,0.0,0.0,-0.20794677734375,0.073974609375,0.9884033203125,2.340240478515625,-5.734710693359375,-1.15142822265625,3193626.3736263737,120900073.26007326,62443736.26373626,75.58055,1.0,2.0,4.0,1.0,2.0,40.0,/muse/elements/jaw_clench,0 days 00:00:00
2023-11-16 11:35:30.678,0.8092633,0.0,0.507463,0.0,0.38100156,0.0,0.07655348,0.0,0.8305705,0.0,0.33187237,0.0,1.0033218,0.0,0.26303646,0.0,1.1418958,0.0,0.17068422,0.0,826.4103,182.9304,794.9817,1057.6923,1061.3187,0.0,0.0,-0.20794677734375,0.073974609375,0.9884033203125,2.340240478515625,-5.734710693359375,-1.15142822265625,3193626.3736263737,120900073.26007326,62443736.26373626,75.58055,1.0,2.0,4.0,1.0,2.0,40.0,/muse/elements/jaw_clench,0 days 00:00:00
2023-11-16 11:35:30.730,0.8092633,0.0,0.507463,0.0,0.38100156,0.0,0.07655348,0.0,0.8305705,0.0,0.33187237,0.0,1.0033218,0.0,0.26303646,0.0,1.1418958,0.0,0.17068422,0.0,774.43225,802.6374,797.8022,1064.1392,825.6044,0.0,0.0,-0.21551513671875,0.070556640625,0.97137451171875,2.654266357421875,-5.00946044921875,-1.375732421875,3193626.3736263737,120900073.26007326,62443736.26373626,75.58055,1.0,2.0,4.0,1.0,2.0,40.0,/muse/elements/jaw_clench,0 days 00:00:00.052000
2023-11-16 11:35:30.731,0.8092633,0.0,0.507463,0.0,0.38100156,0.0,0.07655348,0.0,0.8305705,0.0,0.33187237,0.0,1.0033218,0.0,0.26303646,0.0,1.1418958,0.0,0.17068422,0.0,759.5238,1142.7106,817.1429,995.64105,685.78754,0.0,0.0,-0.21551513671875,0.070556640625,0.97137451171875,2.654266357421875,-5.00946044921875,-1.375732421875,3193626.3736263737,120900073.26007326,62443736.26373626,75.58055,1.0,2.0,4.0,1.0,2.0,40.0,/muse/elements/jaw_clench,0 days 00:00:00.001000
2023-11-16 11:35:30.731,0.8092633,0.0,0.507463,0.0,0.38100156,0.0,0.07655348,0.0,0.8305705,0.0,0.33187237,0.0,1.0033218,0.0,0.26303646,0.0,1.1418958,0.0,0.17068422,0.0,786.9231,655.16486,819.15753,995.64105,865.89746,0.0,0.0,-0.21551513671875,0.070556640625,0.97137451171875,2.654266357421875,-5.00946044921875,-1.375732421875,3193626.3736263737,120900073.26007326,62443736.26373626,75.58055,1.0,2.0,4.0,1.0,2.0,40.0,/muse/elements/jaw_clench,0 days 00:00:00
2023-11-16 11:35:30.732,0.8092633,0.0,0.507463,0.0,0.38100156,0.0,0.07655348,0.0,0.8305705,0.0,0.33187237,0.0,1.0033218,0.0,0.26303646,0.0,1.1418958,0.0,0.17068422,0.0,796.5934,702.3077,806.6667,1029.4872,930.3663,0.0,0.0,-0.21551513671875,0.070556640625,0.97137451171875,2.654266357421875,-5.00946044921875,-1.375732421875,3193626.3736263737,120900073.26007326,62443736.26373626,75.58055,1.0,2.0,4.0,1.0,2.0,40.0,/muse/elements/jaw_clench,0 days 00:00:00.001000
2023-11-16 11:35:30.732,0.8092633,0.0,0.507463,0.0,0.38100156,0.0,0.07655348,0.0,0.8305705,0.0,0.33187237,0.0,1.0033218,0.0,0.26303646,0.0,1.1418958,0.0,0.17068422,0.0,792.5641,1209.1941,806.6667,1047.2161,765.16486,0.0,0.0,-0.21551513671875,0.070556640625,0.97137451171875,2.654266357421875,-5.00946044921875,-1.375732421875,3193626.3736263737,120900073.26007326,62443736.26373626,75.58055,1.0,2.0,4.0,1.0,2.0,40.0,/muse/elements/jaw_clench,0 days 00:00:00
2023-11-16 11:35:30.732,0.8092633,0.0,0.507463,0.0,0.38100156,0.0,0.07655348,0.0,0.8305705,0.0,0.33187237,0.0,1.0033218,0.0,0.26303646,0.0,1.1418958,0.0,0.17068422,0.0,805.4579,1024.249,818.7546,1033.5165,846.1539,0.0,0.0,-0.21551513671875,0.070556640625,0.97137451171875,2.654266357421875,-5.00946044921875,-1.375732421875,3193626.3736263737,120900073.26007326,62443736.26373626,75.58055,1.0,2.0,4.0,1.0,2.0,40.0,/muse/elements/jaw_clench,0 days 00:00:00
2023-11-16 11:35:30.733,0.8092633,0.0,0.507463,0.0,0.38100156,0.0,0.07655348,0.0,0.8305705,0.0,0.33187237,0.0,1.0033218,0.0,0.26303646,0.0,1.1418958,0.0,0.17068422,0.0,811.0989,472.63736,817.5458,996.04395,1046.4103,0.0,0.0,-0.21551513671875,0.070556640625,0.97137451171875,2.654266357421875,-5.00946044921875,-1.375732421875,3193626.3736263737,120900073.26007326,62443736.26373626,75.58055,1.0,2.0,4.0,1.0,2.0,40.0,/muse/elements/jaw_clench,0 days 00:00:00.001000
2023-11-16 11:35:30.733,0.8092633,0.0,0.507463,0.0,0.38100156,0.0,0.07655348,0.0,0.8305705,0.0,0.33187237,0.0,1.0033218,0.0,0.26303646,0.0,1.1418958,0.0,0.17068422,0.0,807.47253,667.25275,810.293,1001.28204,915.4579,0.0,0.0,-0.21551513671875,0.070556640625,0.97137451171875,2.654266357421875,-5.00946044921875,-1.375732421875,3193626.3736263737,120900073.26007326,62443736.26373626,75.58055,1.0,2.0,4.0,1.0,2.0,40.0,/muse/elements/jaw_clench,0 days 00:00:00
2023-11-16 11:35:30.734,0.8092633,0.0,0.507463,0.0,0.38100156,0.0,0.07655348,0.0,0.8305705,0.0,0.33187237,0.0,1.0033218,0.0,0.26303646,0.0,1.1418958,0.0,0.17068422,0.0,809.4872,1189.4506,805.8608,1056.0806,716.8132,0.0,0.0,-0.21551513671875,0.070556640625,0.97137451171875,2.654266357421875,-5.00946044921875,-1.375732421875,3193626.3736263737,120900073.26007326,62443736.26373626,75.58055,1.0,2.0,4.0,1.0,2.0,40.0,/muse/elements/jaw_clench,0 days 00:00:00.001000
2023-11-16 11:35:30.734,0.8092633,0.0,0.507463,0.0,0.38100156,0.0,0.07655348,0.0,0.8305705,0.0,0.33187237,0.0,1.0033218,0.0,0.26303646,0.0,1.1418958,0.0,0.17068422,0.0,811.50183,942.4542,811.50183,1042.7839,807.0696,0.0,0.0,-0.21551513671875,0.070556640625,0.97137451171875,2.654266357421875,-5.00946044921875,-1.375732421875,3193626.3736263737,120900073.26007326,62443736.26373626,75.58055,1.0,2.0,4.0,1.0,2.0,40.0,/muse/elements/jaw_clench,0 days 00:00:00
2023-11-16 11:35:30.734,0.8092633,0.0,0.507463,0.0,0.38100156,0.0,0.07655348,0.0,0.8305705,0.0,0.33187237,0.0,1.0033218,0.0,0.26303646,0.0,1.1418958,0.0,0.17068422,0.0,820.3663,669.67035,814.3223,962.6007,875.56775,0.0,0.0,-0.21551513671875,0.070556640625,0.97137451171875,2.654266357421875,-5.00946044921875,-1.375732421875,3193626.3736263737,120900073.26007326,62443736.26373626,75.58055,1.0,2.0,4.0,1.0,2.0,40.0,/muse/elements/jaw_clench,0 days 00:00:00
2023-11-16 11:35:30.735,0.8092633,0.0,0.507463,0.0,0.38100156,0.0,0.07655348,0.0,0.8305705,0.0,0.33187237,0.0,1.0033218,0.0,0.26303646,0.0,1.1418958,0.0,0.17068422,0.0,802.23444,1066.1538,807.8755,956.55676,835.6777,0.0,0.0,-0.21551513671875,0.070556640625,0.97137451171875,2.654266357421875,-5.00946044921875,-1.375732421875,3193626.3736263737,120900073.26007326,62443736.26373626,75.58055,1.0,2.0,4.0,1.0,2.0,40.0,/muse/elements/jaw_clench,0 days 00:00:00.001000
2023-11-16 11:35:30.768,0.8092633,0.0,0.507463,0.0,0.38100156,0.0,0.07655348,0.0,0.8305705,0.0,0.33187237,0.0,1.0033218,0.0,0.26303646,0.0,1.1418958,0.0,0.17068422,0.0,780.4762,1531.1355,808.2784,1035.1282,855.82416,0.0,0.0,-0.21728515625,0.07696533203125,0.9757080078125,5.121612548828125,-8.994598388671875,-4.508514404296875,3196043.956043956,120800952.38095236,62418754.578754574,75.74365,1.0,2.0,4.0,1.0,2.0,40.0,/muse/elements/jaw_clench,0 days 00:00:00.033000
2023-11-16 11:35:30.769,0.8092633,0.0,0.507463,0.0,0.38100156,0.0,0.07655348,0.0,0.8305705,0.0,0.33187237,0.0,1.0033218,0.0,0.26303646,0.0,1.1418958,0.0,0.17068422,0.0,798.60803,1198.3151,807.8755,1034.3224,863.8828,0.0,0.0,-0.21728515625,0.07696533203125,0.9757080078125,5.121612548828125,-8.994598388671875,-4.508514404296875,3196043.956043956,120800952.38095236,62418754.578754574,75.74365,1.0,2.0,4.0,1.0,2.0,40.0,/muse/elements/jaw_clench,0 days 00:00:00.001000
2023-11-16 11:35:30.769,0.8092633,0.0,0.507463,0.0,0.38100156,0.0,0.07655348,0.0,0.8305705,0.0,0.33187237,0.0,1.0033218,0.0,0.26303646,0.0,1.1418958,0.0,0.17068422,0.0,812.3077,1056.0806,805.4579,946.8865,823.5897,0.0,0.0,-0.21728515625,0.07696533203125,0.9757080078125,5.121612548828125,-8.994598388671875,-4.508514404296875,3196043.956043956,120800952.38095236,62418754.578754574,75.74365,1.0,2.0,4.0,1.0,2.0,40.0,/muse/elements/jaw_clench,0 days 00:00:00
2023-11-16 11:35:30.770,0.8901433,0.0,0.4693961,0.0,0.40760425,0.0,0.13223194,0.0,0.5979783,0.0,0.3423145,0.0,1.0700111,0.0,0.26198903,0.0,0.76253426,0.0,0.17133634,0.0,815.5311,1378.8279,811.50183,920.696,814.3223,0.0,0.0,-0.21728515625,0.07696533203125,0.9757080078125,5.121612548828125,-8.994598388671875,-4.508514404296875,3196043.956043956,120800952.38095236,62418754.578754574,75.74365,1.0,2.0,4.0,1.0,2.0,40.0,/muse/elements/jaw_clench,0 days 00:00:00.001000
2023-11-16 11:35:30.773,0.8901433,0.0,0.4693961,0.0,0.40760425,0.0,0.13223194,0.0,0.5979783,0.0,0.3423145,0.0,1.0700111,0.0,0.26198903,0.0,0.76253426,0.0,0.17133634,0.0,827.619,1508.5714,821.978,968.24176,817.9487,0.0,0.0,-0.21728515625,0.07696533203125,0.9757080078125,5.121612548828125,-8.994598388671875,-4.508514404296875,3196043.956043956,120800952.38095236,62418754.578754574,75.74365,1.0,2.0,4.0,1.0,2.0,40.0,/muse/elements/jaw_clench,0 days 00:00:00.003000
2023-11-16 11:35:30.773,0.8901433,0.0,0.4693961,0.0,0.40760425,0.0,0.13223194,0.0,0.5979783,0.0,0.3423145,0.0,1.0700111,0.0,0.26198903,0.0,0.76253426,0.0,0.17133634,0.0,861.8681,942.0513,829.2308,1010.9524,963.8095,0.0,0.0,-0.21728515625,0.07696533203125,0.9757080078125,5.121612548828125,-8.994598388671875,-4.508514404296875,3196043.956043956,120800952.38095236,62418754.578754574,75.74365,1.0,2.0,4.0,1.0,2.0,40.0,/muse/elements/jaw_clench,0 days 00:00:00
2023-11-16 11:35:30.774,0.8901433,0.0,0.4693961,0.0,0.40760425,0.0,0.13223194,0.0,0.5979783,0.0,0.3423145,0.0,1.0700111,0.0,0.26198903,0.0,0.76253426,0.0,0.17133634,0.0,865.09155,469.4139,825.2015,937.619,1052.4542,0.0,0.0,-0.21728515625,0.07696533203125,0.9757080078125,5.121612548828125,-8.994598388671875,-4.508514404296875,3196043.956043956,120800952.38095236,62418754.578754574,75.74365,1.0,2.0,4.0,1.0,2.0,40.0,/muse/elements/jaw_clench,0 days 00:00:00.001000
2023-11-16 11:35:30.774,0.8901433,0.0,0.4693961,0.0,0.40760425,0.0,0.13223194,0.0,0.5979783,0.0,0.3423145,0.0,1.0700111,0.0,0.26198903,0.0,0.76253426,0.0,0.17133634,0.0,819.15753,1067.7656,819.15753,829.6337,951.7216,0.0,0.0,-0.21728515625,0.07696533203125,0.9757080078125,5.121612548828125,-8.994598388671875,-4.508514404296875,3196043.956043956,120800952.38095236,62418754.578754574,75.74365,1.0,2.0,4.0,1.0,2.0,40.0,/muse/elements/jaw_clench,0 days 00:00:00
2023-11-16 11:35:30.774,0.8901433,0.0,0.4693961,0.0,0.40760425,0.0,0.13223194,0.0,0.5979783,0.0,0.3423145,0.0,1.0700111,0.0,0.26198903,0.0,0.76253426,0.0,0.17133634,0.0,788.5348,1465.0549,813.91943,861.06226,840.9158,0.0,0.0,-0.21728515625,0.07696533203125,0.9757080078125,5.121612548828125,-8.994598388671875,-4.508514404296875,3196043.956043956,120800952.38095236,62418754.578754574,75.74365,1.0,2.0,4.0,1.0,2.0,40.0,/muse/elements/jaw_clench,0 days 00:00:00
2023-11-16 11:35:30.775,0.8901433,0.0,0.4693961,0.0,0.40760425,0.0,0.13223194,0.0,0.5979783,0.0,0.3423145,0.0,1.0700111,0.0,0.26198903,0.0,0.76253426,0.0,0.17133634,0.0,823.1868,900.14655,816.337,949.707,886.4469,0.0,0.0,-0.21728515625,0.07696533203125,0.9757080078125,5.121612548828125,-8.994598388671875,-4.508514404296875,3196043.956043956,120800952.38095236,62418754.578754574,75.74365,1.0,2.0,4.0,1.0,2.0,40.0,/muse/elements/jaw_clench,0 days 00:00:00.001000
2023-11-16 11:35:30.775,0.8901433,0.0,0.4693961,0.0,0.40760425,0.0,0.13223194,0.0,0.5979783,0.0,0.3423145,0.0,1.0700111,0.0,0.26198903,0.0,0.76253426,0.0,0.17133634,0.0,844.1392,709.9634,818.3516,900.14655,960.989,0.0,0.0,-0.21728515625,0.07696533203125,0.9757080078125,5.121612548828125,-8.994598388671875,-4.508514404296875,3196043.956043956,120800952.38095236,62418754.578754574,75.74365,1.0,2.0,4.0,1.0,2.0,40.0,/muse/elements/jaw_clench,0 days 00:00:00
2023-11-16 11:35:30.776,0.8901433,0.0,0.4693961,0.0,0.40760425,0.0,0.13223194,0.0,0.5979783,0.0,0.3423145,0.0,1.0700111,0.0,0.26198903,0.0,0.76253426,0.0,0.17133634,0.0,824.3956,1073.8096,811.50183,828.022,850.58606,0.0,0.0,-0.21728515625,0.07696533203125,0.9757080078125,5.121612548828125,-8.994598388671875,-4.508514404296875,3196043.956043956,120800952.38095236,62418754.578754574,75.74365,1.0,2.0,4.0,1.0,2.0,40.0,/muse/elements/jaw_clench,0 days 00:00:00.001000
2023-11-16 11:35:30.837,0.8901433,0.0,0.4693961,0.0,0.40760425,0.0,0.13223194,0.0,0.5979783,0.0,0.3423145,0.0,1.0700111,0.0,0.26198903,0.0,0.76253426,0.0,0.17133634,0.0,810.293,1066.5568,816.337,890.4762,827.619,0.0,0.0,-0.21295166015625,0.08221435546875,0.985595703125,8.00018310546875,-12.81524658203125,-7.529144287109375,3196043.956043956,120800952.38095236,62418754.578754574,75.74365,1.0,2.0,4.0,1.0,2.0,40.0,/muse/elements/jaw_clench,0 days 00:00:00.061000
2023-11-16 11:35:30.837,0.8901433,0.0,0.4693961,0.0,0.40760425,0.0,0.13223194,0.0,0.5979783,0.0,0.3423145,0.0,1.0700111,0.0,0.26198903,0.0,0.76253426,0.0,0.17133634,0.0,814.7253,621.31866,835.6777,981.53845,989.19415,0.0,0.0,-0.21295166015625,0.08221435546875,0.985595703125,8.00018310546875,-12.81524658203125,-7.529144287109375,3196043.956043956,120800952.38095236,62418754.578754574,75.74365,1.0,2.0,4.0,1.0,2.0,40.0,/muse/elements/jaw_clench,0 days 00:00:00
2023-11-16 11:35:30.838,0.8901433,0.0,0.4693961,0.0,0.40760425,0.0,0.13223194,0.0,0.5979783,0.0,0.3423145,0.0,1.0700111,0.0,0.26198903,0.0,0.76253426,0.0,0.17133634,0.0,809.4872,358.60806,833.663,947.28937,1064.1392,0.0,0.0,-0.21295166015625,0.08221435546875,0.985595703125,8.00018310546875,-12.81524658203125,-7.529144287109375,3196043.956043956,120800952.38095236,62418754.578754574,75.74365,1.0,2.0,4.0,1.0,2.0,40.0,/muse/elements/jaw_clench,0 days 00:00:00.001000
2023-11-16 11:35:30.838,0.8901433,0.0,0.4693961,0.0,0.40760425,0.0,0.13223194,0.0,0.5979783,0.0,0.3423145,0.0,1.0700111,0.0,0.26198903,0.0,0.76253426,0.0,0.17133634,0.0,780.4762,1119.7435,809.0842,815.9341,788.5348,0.0,0.0,-0.21295166015625,0.08221435546875,0.985595703125,8.00018310546875,-12.81524658203125,-7.529144287109375,3196043.956043956,120800952.38095236,62418754.578754574,75.74365,1.0,2.0,4.0,1.0,2.0,40.0,/muse/elements/jaw_clench,0 days 00:00:00
2023-11-16 11:35:30.839,0.8901433,0.0,0.4693961,0.0,0.40760425,0.0,0.13223194,0.0,0.5979783,0.0,0.3423145,0.0,1.0700111,0.0,0.26198903,0.0,0.76253426,0.0,0.17133634,0.0,800.2198,1265.6044,811.50183,805.8608,735.34796,0.0,0.0,-0.21295166015625,0.08221435546875,0.985595703125,8.00018310546875,-12.81524658203125,-7.529144287109375,3196043.956043956,120800952.38095236,62418754.578754574,75.74365,1.0,2.0,4.0,1.0,2.0,40.0,/muse/elements/jaw_clench,0 days 00:00:00.001000
2023-11-16 11:35:30.839,0.8901433,0.0,0.4693961,0.0,0.40760425,0.0,0.13223194,0.0,0.5979783,0.0,0.3423145,0.0,1.0700111,0.0,0.26198903,0.0,0.76253426,0.0,0.17133634,0.0,827.2161,856.63007,824.3956,885.2381,807.47253,0.0,0.0,-0.21295166015625,0.08221435546875,0.985595703125,8.00018310546875,-12.81524658203125,-7.529144287109375,3196043.956043956,120800952.38095236,62418754.578754574,75.74365,1.0,2.0,4.0,1.0,2.0,40.0,/muse/elements/jaw_clench,0 days 00:00:00
2023-11-16 11:35:30.840,0.8901433,0.0,0.4693961,0.0,0.40760425,0.0,0.13223194,0.0,0.5979783,0.0,0.3423145,0.0,1.0700111,0.0,0.26198903,0.0,0.76253426,0.0,0.17133634,0.0,824.7985,826.0073,828.4249,884.43225,844.1392,0.0,0.0,-0.21295166015625,0.08221435546875,0.985595703125,8.00018310546875,-12.81524658203125,-7.529144287109375,3196043.956043956,120800952.38095236,62418754.578754574,75.74365,1.0,2.0,4.0,1.0,2.0,40.0,/muse/elements/jaw_clench,0 days 00:00:00.001000
2023-11-16 11:35:30.840,0.8901433,0.0,0.4693961,0.0,0.40760425,0.0,0.13223194,0.0,0.5979783,0.0,0.3423145,0.0,1.0700111,0.0,0.26198903,0.0,0.76253426,0.0,0.17133634,0.0,800.2198,1227.326,827.2161,787.72894,840.5128,0.0,0.0,-0.21295166015625,0.08221435546875,0.985595703125,8.00018310546875,-12.81524658203125,-7.529144287109375,3196043.956043956,120800952.38095236,62418754.578754574,75.74365,1.0,2.0,4.0,1.0,2.0,40.0,/muse/elements/jaw_clench,0 days 00:00:00
2023-11-16 11:35:30.841,0.8901433,0.0,0.4693961,0.0,0.40760425,0.0,0.13223194,0.0,0.5979783,0.0,0.3423145,0.0,1.0700111,0.0,0.26198903,0.0,0.76253426,0.0,0.17133634,0.0,819.15753,1290.586,817.9487,745.0183,825.2015,0.0,0.0,-0.21295166015625,0.08221435546875,0.985595703125,8.00018310546875,-12.81524658203125,-7.529144287109375,3196043.956043956,120800952.38095236,62418754.578754574,75.74365,1.0,2.0,4.0,1.0,2.0,40.0,/muse/elements/jaw_clench,0 days 00:00:00.001000
2023-11-16 11:35:30.841,0.8901433,0.0,0.4693961,0.0,0.40760425,0.0,0.13223194,0.0,0.5979783,0.0,0.3423145,0.0,1.0700111,0.0,0.26198903,0.0,0.76253426,0.0,0.17133634,0.0,855.82416,655.56775,818.3516,824.7985,982.74725,0.0,0.0,-0.21295166015625,0.08221435546875,0.985595703125,8.00018310546875,-12.81524658203125,-7.529144287109375,3196043.956043956,120800952.38095236,62418754.578754574,75.74365,1.0,2.0,4.0,1.0,2.0,40.0,/muse/elements/jaw_clench,0 days 00:00:00
2023-11-16 11:35:30.842,0.8901433,0.0,0.4693961,0.0,0.40760425,0.0,0.13223194,0.0,0.5979783,0.0,0.3423145,0.0,1.0700111,0.0,0.26198903,0.0,0.76253426,0.0,0.17133634,0.0,803.44324,834.87177,815.9341,851.79486,931.5751,0.0,0.0,-0.21295166015625,0.08221435546875,0.985595703125,8.00018310546875,-12.81524658203125,-7.529144287109375,3196043.956043956,120800952.38095236,62418754.578754574,75.74365,1.0,2.0,4.0,1.0,2.0,40.0,/muse/elements/jaw_clench,0 days 00:00:00.001000
2023-11-16 11:35:30.842,0.8901433,0.0,0.4693961,0.0,0.40760425,0.0,0.13223194,0.0,0.5979783,0.0,0.3423145,0.0,1.0700111,0.0,0.26198903,0.0,0.76253426,0.0,0.17133634,0.0,774.0293,1372.381,805.4579,762.74725,759.92676,0.0,0.0,-0.21295166015625,0.08221435546875,0.985595703125,8.00018310546875,-12.81524658203125,-7.529144287109375,3196043.956043956,120800952.38095236,62418754.578754574,75.74365,1.0,2.0,4.0,1.0,2.0,40.0,/muse/elements/jaw_clench,0 days 00:00:00
2023-11-16 11:35:30.878,0.8901433,0.0,0.4693961,0.0,0.40760425,0.0,0.13223194,0.0,0.5979783,0.0,0.3423145,0.0,1.0700111,0.0,0.26198903,0.0,0.76253426,0.0,0.17133634,0.0,794.9817,1069.7803,804.2491,726.4835,775.64105,0.0,0.0,-0.21295166015625,0.08221435546875,0.985595703125,8.00018310546875,-12.81524658203125,-7.529144287109375,3202490.8424908426,120775164.83516484,62415531.135531135,75.89721,1.0,2.0,4.0,1.0,2.0,40.0,/muse/elements/jaw_clench,0 days 00:00:00.036000
2023-11-16 11:35:30.878,0.8901433,0.0,0.4693961,0.0,0.40760425,0.0,0.13223194,0.0,0.5979783,0.0,0.3423145,0.0,1.0700111,0.0,0.26198903,0.0,0.76253426,0.0,0.17133634,0.0,808.68134,980.7326,811.0989,788.5348,808.2784,0.0,0.0,-0.21295166015625,0.08221435546875,0.985595703125,8.00018310546875,-12.81524658203125,-7.529144287109375,3202490.8424908426,120775164.83516484,62415531.135531135,75.89721,1.0,2.0,4.0,1.0,2.0,40.0,/muse/elements/jaw_clench,0 days 00:00:00
2023-11-16 11:35:30.879,0.8901433,0.0,0.4693961,0.0,0.40760425,0.0,0.13223194,0.0,0.5979783,0.0,0.3423145,0.0,1.0700111,0.0,0.26198903,0.0,0.76253426,0.0,0.17133634,0.0,801.4286,1204.762,817.1429,825.6044,807.0696,0.0,0.0,-0.21295166015625,0.08221435546875,0.985595703125,8.00018310546875,-12.81524658203125,-7.529144287109375,3202490.8424908426,120775164.83516484,62415531.135531135,75.89721,1.0,2.0,4.0,1.0,2.0,40.0,/muse/elements/jaw_clench,0 days 00:00:00.001000
2023-11-16 11:35:30.879,0.8901433,0.0,0.4693961,0.0,0.40760425,0.0,0.13223194,0.0,0.5979783,0.0,0.3423145,0.0,1.0700111,0.0,0.26198903,0.0,0.76253426,0.0,0.17133634,0.0,797.8022,1049.2307,811.50183,751.4652,790.54944,0.0,0.0,-0.21295166015625,0.08221435546875,0.985595703125,8.00018310546875,-12.81524658203125,-7.529144287109375,3202490.8424908426,120775164.83516484,62415531.135531135,75.89721,1.0,2.0,4.0,1.0,2.0,40.0,/muse/elements/jaw_clench,0 days 00:00:00
2023-11-16 11:35:30.880,0.8901433,0.0,0.4693961,0.0,0.40760425,0.0,0.13223194,0.0,0.5979783,0.0,0.3423145,0.0,1.0700111,0.0,0.26198903,0.0,0.76253426,0.0,0.17133634,0.0,796.5934,655.16486,815.5311,675.31134,877.5824,0.0,0.0,-0.21295166015625,0.08221435546875,0.985595703125,8.00018310546875,-12.81524658203125,-7.529144287109375,3202490.8424908426,120775164.83516484,62415531.135531135,75.89721,1.0,2.0,4.0,1.0,2.0,40.0,/muse/elements/jaw_clench,0 days 00:00:00.001000
2023-11-16 11:35:30.880,0.90972966,0.0,0.430952,0.0,0.41476858,0.0,0.18729158,0.0,0.64909786,0.0,0.34768704,0.0,1.0826422,0.0,0.27003,0.0,0.7536178,0.0,0.17692234,0.0,805.8608,454.5055,824.7985,701.50183,995.2381,0.0,0.0,-0.21295166015625,0.08221435546875,0.985595703125,8.00018310546875,-12.81524658203125,-7.529144287109375,3202490.8424908426,120775164.83516484,62415531.135531135,75.89721,1.0,1.0,4.0,1.0,2.0,40.0,/muse/elements/jaw_clench,0 days 00:00:00
2023-11-16 11:35:30.883,0.90972966,0.0,0.430952,0.0,0.41476858,0.0,0.18729158,0.0,0.64909786,0.0,0.34768704,0.0,1.0826422,0.0,0.27003,0.0,0.7536178,0.0,0.17692234,0.0,792.96704,689.81683,814.3223,737.76556,850.989,0.0,0.0,-0.21295166015625,0.08221435546875,0.985595703125,8.00018310546875,-12.81524658203125,-7.529144287109375,3202490.8424908426,120775164.83516484,62415531.135531135,75.89721,1.0,1.0,4.0,1.0,2.0,40.0,/muse/elements/jaw_clench,0 days 00:00:00.003000
2023-11-16 11:35:30.883,0.90972966,0.0,0.430952,0.0,0.41476858,0.0,0.18729158,0.0,0.64909786,0.0,0.34768704,0.0,1.0826422,0.0,0.27003,0.0,0.7536178,0.0,0.17692234,0.0,755.89746,1000.87915,779.67035,685.38464,718.8278,0.0,0.0,-0.21295166015625,0.08221435546875,0.985595703125,8.00018310546875,-12.81524658203125,-7.529144287109375,3202490.8424908426,120775164.83516484,62415531.135531135,75.89721,1.0,1.0,4.0,1.0,2.0,40.0,/muse/elements/jaw_clench,0 days 00:00:00
2023-11-16 11:35:30.884,0.90972966,0.0,0.430952,0.0,0.41476858,0.0,0.18729158,0.0,0.64909786,0.0,0.34768704,0.0,1.0826422,0.0,0.27003,0.0,0.7536178,0.0,0.17692234,0.0,772.8205,597.9487,808.2784,637.8388,875.16486,0.0,0.0,-0.21295166015625,0.08221435546875,0.985595703125,8.00018310546875,-12.81524658203125,-7.529144287109375,3202490.8424908426,120775164.83516484,62415531.135531135,75.89721,1.0,1.0,4.0,1.0,2.0,40.0,/muse/elements/jaw_clench,0 days 00:00:00.001000
2023-11-16 11:35:30.884,0.90972966,0.0,0.430952,0.0,0.41476858,0.0,0.18729158,0.0,0.64909786,0.0,0.34768704,0.0,1.0826422,0.0,0.27003,0.0,0.7536178,0.0,0.17692234,0.0,798.60803,211.13553,844.5421,650.32965,990.0,0.0,0.0,-0.21295166015625,0.08221435546875,0.985595703125,8.00018310546875,-12.81524658203125,-7.529144287109375,3202490.8424908426,120775164.83516484,62415531.135531135,75.89721,1.0,1.0,4.0,1.0,2.0,40.0,/muse/elements/jaw_clench,0 days 00:00:00
2023-11-16 11:35:30.885,0.90972966,0.0,0.430952,0.0,0.41476858,0.0,0.18729158,0.0,0.64909786,0.0,0.34768704,0.0,1.0826422,0.0,0.27003,0.0,0.7536178,0.0,0.17692234,0.0,788.1319,882.01465,820.7692,665.2381,838.0952,0.0,0.0,-0.21295166015625,0.08221435546875,0.985595703125,8.00018310546875,-12.81524658203125,-7.529144287109375,3202490.8424908426,120775164.83516484,62415531.135531135,75.89721,1.0,1.0,4.0,1.0,2.0,40.0,/muse/elements/jaw_clench,0 days 00:00:00.001000
2023-11-16 11:35:30.885,0.90972966,0.0,0.430952,0.0,0.41476858,0.0,0.18729158,0.0,0.64909786,0.0,0.34768704,0.0,1.0826422,0.0,0.27003,0.0,0.7536178,0.0,0.17692234,0.0,789.34064,938.022,810.696,670.4762,852.6007,0.0,0.0,-0.21295166015625,0.08221435546875,0.985595703125,8.00018310546875,-12.81524658203125,-7.529144287109375,3202490.8424908426,120775164.83516484,62415531.135531135,75.89721,1.0,1.0,4.0,1.0,2.0,40.0,/muse/elements/jaw_clench,0 days 00:00:00
2023-11-16 11:35:30.920,0.90972966,0.0,0.430952,0.0,0.41476858,0.0,0.18729158,0.0,0.64909786,0.0,0.34768704,0.0,1.0826422,0.0,0.27003,0.0,0.7536178,0.0,0.17692234,0.0,795.78754,338.0586,818.3516,614.87177,926.337,0.0,0.0,-0.16522216796875,0.0968017578125,0.996826171875,3.521575927734375,-8.14971923828125,-6.26556396484375,3202490.8424908426,120775164.83516484,62415531.135531135,75.89721,1.0,1.0,4.0,1.0,2.0,40.0,/muse/elements/jaw_clench,0 days 00:00:00.035000
2023-11-16 11:35:30.921,0.90972966,0.0,0.430952,0.0,0.41476858,0.0,0.18729158,0.0,0.64909786,0.0,0.34768704,0.0,1.0826422,0.0,0.27003,0.0,0.7536178,0.0,0.17692234,0.0,803.44324,447.25275,817.5458,565.31134,880.80585,0.0,0.0,-0.16522216796875,0.0968017578125,0.996826171875,3.521575927734375,-8.14971923828125,-6.26556396484375,3202490.8424908426,120775164.83516484,62415531.135531135,75.89721,1.0,1.0,4.0,1.0,2.0,40.0,/muse/elements/jaw_clench,0 days 00:00:00.001000
2023-11-16 11:35:30.922,0.90972966,0.0,0.430952,0.0,0.41476858,0.0,0.18729158,0.0,0.64909786,0.0,0.34768704,0.0,1.0826422,0.0,0.27003,0.0,0.7536178,0.0,0.17692234,0.0,794.17584,1022.23444,807.8755,598.7546,791.75824,0.0,0.0,-0.16522216796875,0.0968017578125,0.996826171875,3.521575927734375,-8.14971923828125,-6.26556396484375,3202490.8424908426,120775164.83516484,62415531.135531135,75.89721,1.0,1.0,4.0,1.0,2.0,40.0,/muse/elements/jaw_clench,0 days 00:00:00.001000
2023-11-16 11:35:30.922,0.90972966,0.0,0.430952,0.0,0.41476858,0.0,0.18729158,0.0,0.64909786,0.0,0.34768704,0.0,1.0826422,0.0,0.27003,0.0,0.7536178,0.0,0.17692234,0.0,798.20514,930.3663,810.696,665.64105,760.7326,0.0,0.0,-0.16522216796875,0.0968017578125,0.996826171875,3.521575927734375,-8.14971923828125,-6.26556396484375,3202490.8424908426,120775164.83516484,62415531.135531135,75.89721,1.0,1.0,4.0,1.0,2.0,40.0,/muse/elements/jaw_clench,0 days 00:00:00
2023-11-16 11:35:30.923,0.90972966,0.0,0.430952,0.0,0.41476858,0.0,0.18729158,0.0,0.64909786,0.0,0.34768704,0.0,1.0826422,0.0,0.27003,0.0,0.7536178,0.0,0.17692234,0.0,805.4579,742.6007,817.9487,651.53845,864.68866,0.0,0.0,-0.16522216796875,0.0968017578125,0.996826171875,3.521575927734375,-8.14971923828125,-6.26556396484375,3202490.8424908426,120775164.83516484,62415531.135531135,75.89721,1.0,1.0,4.0,1.0,2.0,40.0,/muse/elements/jaw_clench,0 days 00:00:00.001000
2023-11-16 11:35:30.923,0.90972966,0.0,0.430952,0.0,0.41476858,0.0,0.18729158,0.0,0.64909786,0.0,0.34768704,0.0,1.0826422,0.0,0.27003,0.0,0.7536178,0.0,0.17692234,0.0,771.2088,653.5531,800.2198,628.5714,967.4359,0.0,0.0,-0.16522216796875,0.0968017578125,0.996826171875,3.521575927734375,-8.14971923828125,-6.26556396484375,3202490.8424908426,120775164.83516484,62415531.135531135,75.89721,1.0,1.0,4.0,1.0,2.0,40.0,/muse/elements/jaw_clench,0 days 00:00:00
2023-11-16 11:35:30.924,0.90972966,0.0,0.430952,0.0,0.41476858,0.0,0.18729158,0.0,0.64909786,0.0,0.34768704,0.0,1.0826422,0.0,0.27003,0.0,0.7536178,0.0,0.17692234,0.0,770.80585,568.1319,800.6227,699.89014,871.53845,0.0,0.0,-0.16522216796875,0.0968017578125,0.996826171875,3.521575927734375,-8.14971923828125,-6.26556396484375,3202490.8424908426,120775164.83516484,62415531.135531135,75.89721,1.0,1.0,4.0,1.0,2.0,40.0,/muse/elements/jaw_clench,0 days 00:00:00.001000
2023-11-16 11:35:30.925,0.90972966,0.0,0.430952,0.0,0.41476858,0.0,0.18729158,0.0,0.64909786,0.0,0.34768704,0.0,1.0826422,0.0,0.27003,0.0,0.7536178,0.0,0.17692234,0.0,787.72894,610.0366,812.3077,794.17584,788.93774,0.0,0.0,-0.16522216796875,0.0968017578125,0.996826171875,3.521575927734375,-8.14971923828125,-6.26556396484375,3202490.8424908426,120775164.83516484,62415531.135531135,75.89721,1.0,1.0,4.0,1.0,2.0,40.0,/muse/elements/jaw_clench,0 days 00:00:00.001000
2023-11-16 11:35:30.926,0.90972966,0.0,0.430952,0.0,0.41476858,0.0,0.18729158,0.0,0.64909786,0.0,0.34768704,0.0,1.0826422,0.0,0.27003,0.0,0.7536178,0.0,0.17692234,0.0,827.2161,207.10623,817.5458,815.12823,1041.978,0.0,0.0,-0.16522216796875,0.0968017578125,0.996826171875,3.521575927734375,-8.14971923828125,-6.26556396484375,3202490.8424908426,120775164.83516484,62415531.135531135,75.89721,1.0,1.0,4.0,1.0,2.0,40.0,/muse/elements/jaw_clench,0 days 00:00:00.001000
2023-11-16 11:35:30.926,0.90972966,0.0,0.430952,0.0,0.41476858,0.0,0.18729158,0.0,0.64909786,0.0,0.34768704,0.0,1.0826422,0.0,0.27003,0.0,0.7536178,0.0,0.17692234,0.0,827.619,212.34433,824.3956,772.01465,1099.597,0.0,0.0,-0.16522216796875,0.0968017578125,0.996826171875,3.521575927734375,-8.14971923828125,-6.26556396484375,3202490.8424908426,120775164.83516484,62415531.135531135,75.89721,1.0,1.0,4.0,1.0,2.0,40.0,/muse/elements/jaw_clench,0 days 00:00:00
2023-11-16 11:35:30.927,0.90972966,0.0,0.430952,0.0,0.41476858,0.0,0.18729158,0.0,0.64909786,0.0,0.34768704,0.0,1.0826422,0.0,0.27003,0.0,0.7536178,0.0,0.17692234,0.0,781.685,935.6044,812.3077,779.67035,825.6044,0.0,0.0,-0.16522216796875,0.0968017578125,0.996826171875,3.521575927734375,-8.14971923828125,-6.26556396484375,3202490.8424908426,120775164.83516484,62415531.135531135,75.89721,1.0,1.0,4.0,1.0,2.0,40.0,/muse/elements/jaw_clench,0 days 00:00:00.001000
2023-11-16 11:35:30.927,0.90972966,0.0,0.430952,0.0,0.41476858,0.0,0.18729158,0.0,0.64909786,0.0,0.34768704,0.0,1.0826422,0.0,0.27003,0.0,0.7536178,0.0,0.17692234,0.0,795.38464,915.05493,816.337,869.5238,890.07324,0.0,0.0,-0.16522216796875,0.0968017578125,0.996826171875,3.521575927734375,-8.14971923828125,-6.26556396484375,3202490.8424908426,120775164.83516484,62415531.135531135,75.89721,1.0,1.0,4.0,1.0,2.0,40.0,/muse/elements/jaw_clench,0 days 00:00:00
2023-11-16 11:35:30.962,0.90972966,0.0,0.430952,0.0,0.41476858,0.0,0.18729158,0.0,0.64909786,0.0,0.34768704,0.0,1.0826422,0.0,0.27003,0.0,0.7536178,0.0,0.17692234,0.0,788.5348,732.52747,822.7839,893.2967,853.4066,0.0,0.0,-0.16033935546875,0.09381103515625,0.994384765625,1.218719482421875,-3.90289306640625,-2.452392578125,3216996.336996337,120786446.88644688,62362344.32234432,76.04179,1.0,1.0,4.0,1.0,2.0,40.0,/muse/elements/jaw_clench,0 days 00:00:00.035000
2023-11-16 11:35:30.962,0.90972966,0.0,0.430952,0.0,0.41476858,0.0,0.18729158,0.0,0.64909786,0.0,0.34768704,0.0,1.0826422,0.0,0.27003,0.0,0.7536178,0.0,0.17692234,0.0,768.7912,919.0842,816.337,837.28937,720.0366,0.0,0.0,-0.16033935546875,0.09381103515625,0.994384765625,1.218719482421875,-3.90289306640625,-2.452392578125,3216996.336996337,120786446.88644688,62362344.32234432,76.04179,1.0,1.0,4.0,1.0,2.0,40.0,/muse/elements/jaw_clench,0 days 00:00:00
2023-11-16 11:35:30.962,0.90972966,0.0,0.430952,0.0,0.41476858,0.0,0.18729158,0.0,0.64909786,0.0,0.34768704,0.0,1.0826422,0.0,0.27003,0.0,0.7536178,0.0,0.17692234,0.0,762.3443,1052.0513,804.2491,838.9011,757.50916,0.0,0.0,-0.16033935546875,0.09381103515625,0.994384765625,1.218719482421875,-3.90289306640625,-2.452392578125,3216996.336996337,120786446.88644688,62362344.32234432,76.04179,1.0,1.0,4.0,1.0,2.0,40.0,/muse/elements/jaw_clench,0 days 00:00:00
2023-11-16 11:35:30.962,0.90972966,0.0,0.430952,0.0,0.41476858,0.0,0.18729158,0.0,0.64909786,0.0,0.34768704,0.0,1.0826422,0.0,0.27003,0.0,0.7536178,0.0,0.17692234,0.0,799.81683,819.15753,812.3077,933.9927,813.91943,0.0,0.0,-0.16033935546875,0.09381103515625,0.994384765625,1.218719482421875,-3.90289306640625,-2.452392578125,3216996.336996337,120786446.88644688,62362344.32234432,76.04179,1.0,1.0,4.0,1.0,2.0,40.0,/muse/elements/jaw_clench,0 days 00:00:00
2023-11-16 11:35:30.963,0.90972966,0.0,0.430952,0.0,0.41476858,0.0,0.18729158,0.0,0.64909786,0.0,0.34768704,0.0,1.0826422,0.0,0.27003,0.0,0.7536178,0.0,0.17692234,0.0,815.12823,762.3443,822.381,966.63007,874.35895,0.0,0.0,-0.16033935546875,0.09381103515625,0.994384765625,1.218719482421875,-3.90289306640625,-2.452392578125,3216996.336996337,120786446.88644688,62362344.32234432,76.04179,1.0,1.0,4.0,1.0,2.0,40.0,/muse/elements/jaw_clench,0 days 00:00:00.001000
2023-11-16 11:35:30.963,0.90972966,0.0,0.430952,0.0,0.41476858,0.0,0.18729158,0.0,0.64909786,0.0,0.34768704,0.0,1.0826422,0.0,0.27003,0.0,0.7536178,0.0,0.17692234,0.0,804.2491,782.49084,815.12823,892.8938,857.03296,0.0,0.0,-0.16033935546875,0.09381103515625,0.994384765625,1.218719482421875,-3.90289306640625,-2.452392578125,3216996.336996337,120786446.88644688,62362344.32234432,76.04179,1.0,1.0,4.0,1.0,2.0,40.0,/muse/elements/jaw_clench,0 days 00:00:00
2023-11-16 11:35:30.963,0.90972966,0.0,0.430952,0.0,0.41476858,0.0,0.18729158,0.0,0.64909786,0.0,0.34768704,0.0,1.0826422,0.0,0.27003,0.0,0.7536178,0.0,0.17692234,0.0,812.3077,716.8132,811.50183,841.7216,802.6374,0.0,0.0,-0.16033935546875,0.09381103515625,0.994384765625,1.218719482421875,-3.90289306640625,-2.452392578125,3216996.336996337,120786446.88644688,62362344.32234432,76.04179,1.0,1.0,4.0,1.0,2.0,40.0,/muse/elements/jaw_clench,0 days 00:00:00
2023-11-16 11:35:30.963,0.9291709,0.0,0.4197032,0.0,0.44204533,0.0,0.23074065,0.0,0.64909786,0.0,0.34768704,0.0,1.1016505,0.0,0.28242418,0.0,0.76051027,0.0,0.18906428,0.0,814.3223,495.6044,810.293,900.9524,927.1429,0.0,0.0,-0.16033935546875,0.09381103515625,0.994384765625,1.218719482421875,-3.90289306640625,-2.452392578125,3216996.336996337,120786446.88644688,62362344.32234432,76.04179,1.0,1.0,4.0,1.0,2.0,40.0,/muse/elements/jaw_clench,0 days 00:00:00
2023-11-16 11:35:30.964,0.9291709,0.0,0.4197032,0.0,0.44204533,0.0,0.23074065,0.0,0.64909786,0.0,0.34768704,0.0,1.1016505,0.0,0.28242418,0.0,0.76051027,0.0,0.18906428,0.0,826.4103,253.44322,813.91943,948.9011,994.43225,0.0,0.0,-0.16033935546875,0.09381103515625,0.994384765625,1.218719482421875,-3.90289306640625,-2.452392578125,3216996.336996337,120786446.88644688,62362344.32234432,76.04179,1.0,1.0,4.0,1.0,2.0,40.0,/muse/elements/jaw_clench,0 days 00:00:00.001000
2023-11-16 11:35:30.964,0.9291709,0.0,0.4197032,0.0,0.44204533,0.0,0.23074065,0.0,0.64909786,0.0,0.34768704,0.0,1.1016505,0.0,0.28242418,0.0,0.76051027,0.0,0.18906428,0.0,817.1429,689.011,818.7546,864.68866,828.4249,0.0,0.0,-0.16033935546875,0.09381103515625,0.994384765625,1.218719482421875,-3.90289306640625,-2.452392578125,3216996.336996337,120786446.88644688,62362344.32234432,76.04179,1.0,1.0,4.0,1.0,2.0,40.0,/muse/elements/jaw_clench,0 days 00:00:00
2023-11-16 11:35:30.965,0.9291709,0.0,0.4197032,0.0,0.44204533,0.0,0.23074065,0.0,0.64909786,0.0,0.34768704,0.0,1.1016505,0.0,0.28242418,0.0,0.76051027,0.0,0.18906428,0.0,798.20514,1083.8828,799.81683,758.315,689.41394,0.0,0.0,-0.16033935546875,0.09381103515625,0.994384765625,1.218719482421875,-3.90289306640625,-2.452392578125,3216996.336996337,120786446.88644688,62362344.32234432,76.04179,1.0,1.0,4.0,1.0,2.0,40.0,/muse/elements/jaw_clench,0 days 00:00:00.001000
2023-11-16 11:35:30.965,0.9291709,0.0,0.4197032,0.0,0.44204533,0.0,0.23074065,0.0,0.64909786,0.0,0.34768704,0.0,1.1016505,0.0,0.28242418,0.0,0.76051027,0.0,0.18906428,0.0,825.6044,572.96704,795.38464,762.3443,849.3773,0.0,0.0,-0.16033935546875,0.09381103515625,0.994384765625,1.218719482421875,-3.90289306640625,-2.452392578125,3216996.336996337,120786446.88644688,62362344.32234432,76.04179,1.0,1.0,4.0,1.0,2.0,40.0,/muse/elements/jaw_clench,0 days 00:00:00
2023-11-16 11:35:31.000,0.9291709,0.0,0.4197032,0.0,0.44204533,0.0,0.23074065,0.0,0.64909786,0.0,0.34768704,0.0,1.1016505,0.0,0.28242418,0.0,0.76051027,0.0,0.18906428,0.0,849.3773,229.2674,813.91943,792.1612,961.79486,0.0,0.0,-0.20098876953125,0.08148193359375,0.99139404296875,0.28411865234375,-5.345916748046875,-4.373931884765625,3216996.336996337,120786446.88644688,62362344.32234432,76.04179,1.0,1.0,4.0,1.0,2.0,40.0,/muse/elements/jaw_clench,0 days 00:00:00.035000
2023-11-16 11:35:31.001,0.9291709,0.0,0.4197032,0.0,0.44204533,0.0,0.23074065,0.0,0.64909786,0.0,0.34768704,0.0,1.1016505,0.0,0.28242418,0.0,0.76051027,0.0,0.18906428,0.0,811.0989,965.42126,807.47253,738.5714,705.12823,0.0,0.0,-0.20098876953125,0.08148193359375,0.99139404296875,0.28411865234375,-5.345916748046875,-4.373931884765625,3216996.336996337,120786446.88644688,62362344.32234432,76.04179,1.0,1.0,4.0,1.0,2.0,40.0,/muse/elements/jaw_clench,0 days 00:00:00.001000
2023-11-16 11:35:31.001,0.9291709,0.0,0.4197032,0.0,0.44204533,0.0,0.23074065,0.0,0.64909786,0.0,0.34768704,0.0,1.1016505,0.0,0.28242418,0.0,0.76051027,0.0,0.18906428,0.0,794.9817,1143.1135,802.6374,737.3626,682.96704,0.0,0.0,-0.20098876953125,0.08148193359375,0.99139404296875,0.28411865234375,-5.345916748046875,-4.373931884765625,3216996.336996337,120786446.88644688,62362344.32234432,76.04179,1.0,1.0,4.0,1.0,2.0,40.0,/muse/elements/jaw_clench,0 days 00:00:00
2023-11-16 11:35:31.001,0.9291709,0.0,0.4197032,0.0,0.44204533,0.0,0.23074065,0.0,0.64909786,0.0,0.34768704,0.0,1.1016505,0.0,0.28242418,0.0,0.76051027,0.0,0.18906428,0.0,831.6484,860.2564,811.0989,876.77655,809.89014,0.0,0.0,-0.20098876953125,0.08148193359375,0.99139404296875,0.28411865234375,-5.345916748046875,-4.373931884765625,3216996.336996337,120786446.88644688,62362344.32234432,76.04179,1.0,1.0,4.0,1.0,2.0,40.0,/muse/elements/jaw_clench,0 days 00:00:00
2023-11-16 11:35:31.002,0.9291709,0.0,0.4197032,0.0,0.44204533,0.0,0.23074065,0.0,0.64909786,0.0,0.34768704,0.0,1.1016505,0.0,0.28242418,0.0,0.76051027,0.0,0.18906428,0.0,834.0659,950.9158,809.0842,1085.0916,790.9524,0.0,0.0,-0.20098876953125,0.08148193359375,0.99139404296875,0.28411865234375,-5.345916748046875,-4.373931884765625,3216996.336996337,120786446.88644688,62362344.32234432,76.04179,1.0,1.0,4.0,1.0,2.0,40.0,/muse/elements/jaw_clench,0 days 00:00:00.001000
2023-11-16 11:35:31.002,0.9291709,0.0,0.4197032,0.0,0.44204533,0.0,0.23074065,0.0,0.64909786,0.0,0.34768704,0.0,1.1016505,0.0,0.28242418,0.0,0.76051027,0.0,0.18906428,0.0,808.2784,1039.5604,788.93774,1198.3151,817.5458,0.0,0.0,-0.20098876953125,0.08148193359375,0.99139404296875,0.28411865234375,-5.345916748046875,-4.373931884765625,3216996.336996337,120786446.88644688,62362344.32234432,76.04179,1.0,1.0,4.0,1.0,2.0,40.0,/muse/elements/jaw_clench,0 days 00:00:00
2023-11-16 11:35:31.003,0.9291709,0.0,0.4197032,0.0,0.44204533,0.0,0.23074065,0.0,0.64909786,0.0,0.34768704,0.0,1.1016505,0.0,0.28242418,0.0,0.76051027,0.0,0.18906428,0.0,813.1135,945.2747,788.5348,1189.8535,856.63007,0.0,0.0,-0.20098876953125,0.08148193359375,0.99139404296875,0.28411865234375,-5.345916748046875,-4.373931884765625,3216996.336996337,120786446.88644688,62362344.32234432,76.04179,1.0,1.0,4.0,1.0,2.0,40.0,/muse/elements/jaw_clench,0 days 00:00:00.001000
2023-11-16 11:35:31.003,0.9291709,0.0,0.4197032,0.0,0.44204533,0.0,0.23074065,0.0,0.64909786,0.0,0.34768704,0.0,1.1016505,0.0,0.28242418,0.0,0.76051027,0.0,0.18906428,0.0,823.9927,434.35898,806.26373,1179.3773,958.97437,0.0,0.0,-0.20098876953125,0.08148193359375,0.99139404296875,0.28411865234375,-5.345916748046875,-4.373931884765625,3216996.336996337,120786446.88644688,62362344.32234432,76.04179,1.0,1.0,4.0,1.0,2.0,40.0,/muse/elements/jaw_clench,0 days 00:00:00
2023-11-16 11:35:31.004,0.9291709,0.0,0.4197032,0.0,0.44204533,0.0,0.23074065,0.0,0.64909786,0.0,0.34768704,0.0,1.1016505,0.0,0.28242418,0.0,0.76051027,0.0,0.18906428,0.0,807.47253,602.381,793.36993,1138.2784,1008.1319,0.0,0.0,-0.20098876953125,0.08148193359375,0.99139404296875,0.28411865234375,-5.345916748046875,-4.373931884765625,3216996.336996337,120786446.88644688,62362344.32234432,76.04179,1.0,1.0,4.0,1.0,2.0,40.0,/muse/elements/jaw_clench,0 days 00:00:00.001000
2023-11-16 11:35:31.004,0.9291709,0.0,0.4197032,0.0,0.44204533,0.0,0.23074065,0.0,0.64909786,0.0,0.34768704,0.0,1.1016505,0.0,0.28242418,0.0,0.76051027,0.0,0.18906428,0.0,790.54944,1452.5641,797.8022,1007.326,821.978,0.0,0.0,-0.20098876953125,0.08148193359375,0.99139404296875,0.28411865234375,-5.345916748046875,-4.373931884765625,3216996.336996337,120786446.88644688,62362344.32234432,76.04179,1.0,1.0,4.0,1.0,2.0,40.0,/muse/elements/jaw_clench,0 days 00:00:00
2023-11-16 11:35:31.004,0.9291709,0.0,0.4197032,0.0,0.44204533,0.0,0.23074065,0.0,0.64909786,0.0,0.34768704,0.0,1.1016505,0.0,0.28242418,0.0,0.76051027,0.0,0.18906428,0.0,809.0842,1257.9487,811.0989,869.5238,787.326,0.0,0.0,-0.20098876953125,0.08148193359375,0.99139404296875,0.28411865234375,-5.345916748046875,-4.373931884765625,3216996.336996337,120786446.88644688,62362344.32234432,76.04179,1.0,1.0,4.0,1.0,2.0,40.0,/muse/elements/jaw_clench,0 days 00:00:00
2023-11-16 11:35:31.005,0.9291709,0.0,0.4197032,0.0,0.44204533,0.0,0.23074065,0.0,0.64909786,0.0,0.34768704,0.0,1.1016505,0.0,0.28242418,0.0,0.76051027,0.0,0.18906428,0.0,820.7692,1094.762,811.50183,832.0513,780.87915,0.0,0.0,-0.20098876953125,0.08148193359375,0.99139404296875,0.28411865234375,-5.345916748046875,-4.373931884765625,3216996.336996337,120786446.88644688,62362344.32234432,76.04179,1.0,1.0,4.0,1.0,2.0,40.0,/muse/elements/jaw_clench,0 days 00:00:00.001000
2023-11-16 11:35:31.066,0.9291709,0.0,0.4197032,0.0,0.44204533,0.0,0.23074065,0.0,0.64909786,0.0,0.34768704,0.0,1.1016505,0.0,0.28242418,0.0,0.76051027,0.0,0.18906428,0.0,807.8755,1215.238,805.05493,927.9487,899.7436,0.0,0.0,-0.19085693359375,0.0767822265625,0.96343994140625,3.551483154296875,-3.013153076171875,-9.1815185546875,3222637.3626373624,120807399.26739928,62371208.79120879,76.177895,1.0,1.0,4.0,1.0,2.0,40.0,/muse/elements/jaw_clench,0 days 00:00:00.061000
2023-11-16 11:35:31.067,0.9291709,0.0,0.4197032,0.0,0.44204533,0.0,0.23074065,0.0,0.64909786,0.0,0.34768704,0.0,1.1016505,0.0,0.28242418,0.0,0.76051027,0.0,0.18906428,0.0,823.9927,1408.6447,797.3993,1010.14655,933.1868,0.0,0.0,-0.19085693359375,0.0767822265625,0.96343994140625,3.551483154296875,-3.013153076171875,-9.1815185546875,3222637.3626373624,120807399.26739928,62371208.79120879,76.177895,1.0,1.0,4.0,1.0,2.0,40.0,/muse/elements/jaw_clench,0 days 00:00:00.001000
2023-11-16 11:35:31.068,0.9291709,0.0,0.4197032,0.0,0.44204533,0.0,0.23074065,0.0,0.64909786,0.0,0.34768704,0.0,1.1016505,0.0,0.28242418,0.0,0.76051027,0.0,0.18906428,0.0,863.0769,1177.7656,805.05493,1004.90845,856.2271,0.0,0.0,-0.19085693359375,0.0767822265625,0.96343994140625,3.551483154296875,-3.013153076171875,-9.1815185546875,3222637.3626373624,120807399.26739928,62371208.79120879,76.177895,1.0,1.0,4.0,1.0,2.0,40.0,/muse/elements/jaw_clench,0 days 00:00:00.001000
2023-11-16 11:35:31.068,0.9291709,0.0,0.4197032,0.0,0.44204533,0.0,0.23074065,0.0,0.64909786,0.0,0.34768704,0.0,1.1016505,0.0,0.28242418,0.0,0.76051027,0.0,0.18906428,0.0,829.6337,844.1392,812.71063,959.7802,846.9597,0.0,0.0,-0.19085693359375,0.0767822265625,0.96343994140625,3.551483154296875,-3.013153076171875,-9.1815185546875,3222637.3626373624,120807399.26739928,62371208.79120879,76.177895,1.0,1.0,4.0,1.0,2.0,40.0,/muse/elements/jaw_clench,0 days 00:00:00
2023-11-16 11:35:31.069,0.9291709,0.0,0.4197032,0.0,0.44204533,0.0,0.23074065,0.0,0.64909786,0.0,0.34768704,0.0,1.1016505,0.0,0.28242418,0.0,0.76051027,0.0,0.18906428,0.0,799.81683,1212.0146,800.6227,954.1392,815.5311,0.0,0.0,-0.19085693359375,0.0767822265625,0.96343994140625,3.551483154296875,-3.013153076171875,-9.1815185546875,3222637.3626373624,120807399.26739928,62371208.79120879,76.177895,1.0,1.0,4.0,1.0,2.0,40.0,/muse/elements/jaw_clench,0 days 00:00:00.001000
2023-11-16 11:35:31.069,0.9291709,0.0,0.4197032,0.0,0.44204533,0.0,0.23074065,0.0,0.64909786,0.0,0.34768704,0.0,1.1016505,0.0,0.28242418,0.0,0.76051027,0.0,0.18906428,0.0,849.3773,1206.3737,813.5165,1023.44324,848.97437,0.0,0.0,-0.19085693359375,0.0767822265625,0.96343994140625,3.551483154296875,-3.013153076171875,-9.1815185546875,3222637.3626373624,120807399.26739928,62371208.79120879,76.177895,1.0,1.0,4.0,1.0,2.0,40.0,/muse/elements/jaw_clench,0 days 00:00:00
2023-11-16 11:35:31.069,0.9291709,0.0,0.4197032,0.0,0.44204533,0.0,0.23074065,0.0,0.64909786,0.0,0.34768704,0.0,1.1016505,0.0,0.28242418,0.0,0.76051027,0.0,0.18906428,0.0,878.3883,729.707,819.9634,1032.3077,979.12085,0.0,0.0,-0.19085693359375,0.0767822265625,0.96343994140625,3.551483154296875,-3.013153076171875,-9.1815185546875,3222637.3626373624,120807399.26739928,62371208.79120879,76.177895,1.0,1.0,4.0,1.0,2.0,40.0,/muse/elements/jaw_clench,0 days 00:00:00
2023-11-16 11:35:31.070,0.9291709,0.0,0.4197032,0.0,0.44204533,0.0,0.23074065,0.0,0.64909786,0.0,0.34768704,0.0,1.1016505,0.0,0.28242418,0.0,0.76051027,0.0,0.18906428,0.0,826.8132,398.49817,797.3993,956.1539,1047.619,0.0,0.0,-0.19085693359375,0.0767822265625,0.96343994140625,3.551483154296875,-3.013153076171875,-9.1815185546875,3222637.3626373624,120807399.26739928,62371208.79120879,76.177895,1.0,1.0,4.0,1.0,2.0,40.0,/muse/elements/jaw_clench,0 days 00:00:00.001000
2023-11-16 11:35:31.070,0.9291709,0.0,0.4197032,0.0,0.44204533,0.0,0.23074065,0.0,0.64909786,0.0,0.34768704,0.0,1.1016505,0.0,0.28242418,0.0,0.76051027,0.0,0.18906428,0.0,778.46155,1055.2748,790.54944,933.5897,820.7692,0.0,0.0,-0.19085693359375,0.0767822265625,0.96343994140625,3.551483154296875,-3.013153076171875,-9.1815185546875,3222637.3626373624,120807399.26739928,62371208.79120879,76.177895,1.0,1.0,4.0,1.0,2.0,40.0,/muse/elements/jaw_clench,0 days 00:00:00
2023-11-16 11:35:31.071,0.9493757,0.0,0.44155863,0.0,0.53766036,0.0,0.25782758,0.0,0.64909786,0.0,0.34768704,0.0,1.120467,0.0,0.29469597,0.0,0.7871468,0.0,0.21020074,0.0,801.02563,1347.8022,780.87915,1007.326,741.39197,0.0,0.0,-0.19085693359375,0.0767822265625,0.96343994140625,3.551483154296875,-3.013153076171875,-9.1815185546875,3222637.3626373624,120807399.26739928,62371208.79120879,76.177895,1.0,1.0,4.0,1.0,2.0,40.0,/muse/elements/jaw_clench,0 days 00:00:00.001000
2023-11-16 11:35:31.073,0.9493757,0.0,0.44155863,0.0,0.53766036,0.0,0.25782758,0.0,0.64909786,0.0,0.34768704,0.0,1.120467,0.0,0.29469597,0.0,0.7871468,0.0,0.21020074,0.0,826.0073,1124.1758,792.96704,1023.44324,793.36993,0.0,0.0,-0.19085693359375,0.0767822265625,0.96343994140625,3.551483154296875,-3.013153076171875,-9.1815185546875,3222637.3626373624,120807399.26739928,62371208.79120879,76.177895,1.0,1.0,4.0,1.0,2.0,40.0,/muse/elements/jaw_clench,0 days 00:00:00.002000
2023-11-16 11:35:31.074,0.9493757,0.0,0.44155863,0.0,0.53766036,0.0,0.25782758,0.0,0.64909786,0.0,0.34768704,0.0,1.120467,0.0,0.29469597,0.0,0.7871468,0.0,0.21020074,0.0,838.0952,968.6447,807.47253,947.28937,821.5751,0.0,0.0,-0.19085693359375,0.0767822265625,0.96343994140625,3.551483154296875,-3.013153076171875,-9.1815185546875,3222637.3626373624,120807399.26739928,62371208.79120879,76.177895,1.0,1.0,4.0,1.0,2.0,40.0,/muse/elements/jaw_clench,0 days 00:00:00.001000
2023-11-16 11:35:31.110,0.9493757,0.0,0.44155863,0.0,0.53766036,0.0,0.25782758,0.0,0.64909786,0.0,0.34768704,0.0,1.120467,0.0,0.29469597,0.0,0.7871468,0.0,0.21020074,0.0,831.6484,1060.1099,805.05493,904.17584,819.9634,0.0,0.0,-0.19085693359375,0.0767822265625,0.96343994140625,3.551483154296875,-3.013153076171875,-9.1815185546875,3222637.3626373624,120807399.26739928,62371208.79120879,76.177895,1.0,1.0,4.0,1.0,2.0,40.0,/muse/elements/jaw_clench,0 days 00:00:00.036000
2023-11-16 11:35:31.111,0.9493757,0.0,0.44155863,0.0,0.53766036,0.0,0.25782758,0.0,0.64909786,0.0,0.34768704,0.0,1.120467,0.0,0.29469597,0.0,0.7871468,0.0,0.21020074,0.0,825.6044,1345.7876,801.8315,967.8388,769.19415,0.0,0.0,-0.19085693359375,0.0767822265625,0.96343994140625,3.551483154296875,-3.013153076171875,-9.1815185546875,3222637.3626373624,120807399.26739928,62371208.79120879,76.177895,1.0,1.0,4.0,1.0,2.0,40.0,/muse/elements/jaw_clench,0 days 00:00:00.001000
2023-11-16 11:35:31.111,0.9493757,0.0,0.44155863,0.0,0.53766036,0.0,0.25782758,0.0,0.64909786,0.0,0.34768704,0.0,1.120467,0.0,0.29469597,0.0,0.7871468,0.0,0.21020074,0.0,867.9121,877.1795,800.2198,1048.8279,903.7729,0.0,0.0,-0.19085693359375,0.0767822265625,0.96343994140625,3.551483154296875,-3.013153076171875,-9.1815185546875,3222637.3626373624,120807399.26739928,62371208.79120879,76.177895,1.0,1.0,4.0,1.0,2.0,40.0,/muse/elements/jaw_clench,0 days 00:00:00
2023-11-16 11:35:31.112,0.9493757,0.0,0.44155863,0.0,0.53766036,0.0,0.25782758,0.0,0.64909786,0.0,0.34768704,0.0,1.120467,0.0,0.29469597,0.0,0.7871468,0.0,0.21020074,0.0,848.5714,702.3077,804.2491,1022.23444,959.7802,0.0,0.0,-0.19085693359375,0.0767822265625,0.96343994140625,3.551483154296875,-3.013153076171875,-9.1815185546875,3222637.3626373624,120807399.26739928,62371208.79120879,76.177895,1.0,1.0,4.0,1.0,2.0,40.0,/muse/elements/jaw_clench,0 days 00:00:00.001000
2023-11-16 11:35:31.112,0.9493757,0.0,0.44155863,0.0,0.53766036,0.0,0.25782758,0.0,0.64909786,0.0,0.34768704,0.0,1.120467,0.0,0.29469597,0.0,0.7871468,0.0,0.21020074,0.0,798.20514,1160.4396,807.47253,1019.011,829.2308,0.0,0.0,-0.19085693359375,0.0767822265625,0.96343994140625,3.551483154296875,-3.013153076171875,-9.1815185546875,3222637.3626373624,120807399.26739928,62371208.79120879,76.177895,1.0,1.0,4.0,1.0,2.0,40.0,/muse/elements/jaw_clench,0 days 00:00:00
2023-11-16 11:35:31.113,0.9493757,0.0,0.44155863,0.0,0.53766036,0.0,0.25782758,0.0,0.64909786,0.0,0.34768704,0.0,1.120467,0.0,0.29469597,0.0,0.7871468,0.0,0.21020074,0.0,824.3956,1140.6959,806.26373,1145.1282,859.85345,0.0,0.0,-0.19085693359375,0.0767822265625,0.96343994140625,3.551483154296875,-3.013153076171875,-9.1815185546875,3222637.3626373624,120807399.26739928,62371208.79120879,76.177895,1.0,1.0,4.0,1.0,2.0,40.0,/muse/elements/jaw_clench,0 days 00:00:00.001000
2023-11-16 11:35:31.113,0.9493757,0.0,0.44155863,0.0,0.53766036,0.0,0.25782758,0.0,0.64909786,0.0,0.34768704,0.0,1.120467,0.0,0.29469597,0.0,0.7871468,0.0,0.21020074,0.0,824.7985,809.4872,798.60803,1224.9084,966.2271,0.0,0.0,-0.19085693359375,0.0767822265625,0.96343994140625,3.551483154296875,-3.013153076171875,-9.1815185546875,3222637.3626373624,120807399.26739928,62371208.79120879,76.177895,1.0,1.0,4.0,1.0,2.0,40.0,/muse/elements/jaw_clench,0 days 00:00:00
2023-11-16 11:35:31.114,0.9493757,0.0,0.44155863,0.0,0.53766036,0.0,0.25782758,0.0,0.64909786,0.0,0.34768704,0.0,1.120467,0.0,0.29469597,0.0,0.7871468,0.0,0.21020074,0.0,784.90845,1025.0549,797.8022,1162.0513,914.65204,0.0,0.0,-0.19085693359375,0.0767822265625,0.96343994140625,3.551483154296875,-3.013153076171875,-9.1815185546875,3222637.3626373624,120807399.26739928,62371208.79120879,76.177895,1.0,1.0,4.0,1.0,2.0,40.0,/muse/elements/jaw_clench,0 days 00:00:00.001000
2023-11-16 11:35:31.114,0.9493757,0.0,0.44155863,0.0,0.53766036,0.0,0.25782758,0.0,0.64909786,0.0,0.34768704,0.0,1.120467,0.0,0.29469597,0.0,0.7871468,0.0,0.21020074,0.0,768.7912,1463.8462,792.96704,1068.9744,840.5128,0.0,0.0,-0.19085693359375,0.0767822265625,0.96343994140625,3.551483154296875,-3.013153076171875,-9.1815185546875,3222637.3626373624,120807399.26739928,62371208.79120879,76.177895,1.0,1.0,4.0,1.0,2.0,40.0,/muse/elements/jaw_clench,0 days 00:00:00
2023-11-16 11:35:31.115,0.9493757,0.0,0.44155863,0.0,0.53766036,0.0,0.25782758,0.0,0.64909786,0.0,0.34768704,0.0,1.120467,0.0,0.29469597,0.0,0.7871468,0.0,0.21020074,0.0,786.9231,1425.1648,782.8938,1087.9121,861.8681,0.0,0.0,-0.19085693359375,0.0767822265625,0.96343994140625,3.551483154296875,-3.013153076171875,-9.1815185546875,3222637.3626373624,120807399.26739928,62371208.79120879,76.177895,1.0,1.0,4.0,1.0,2.0,40.0,/muse/elements/jaw_clench,0 days 00:00:00.001000
2023-11-16 11:35:31.115,0.9493757,0.0,0.44155863,0.0,0.53766036,0.0,0.25782758,0.0,0.64909786,0.0,0.34768704,0.0,1.120467,0.0,0.29469597,0.0,0.7871468,0.0,0.21020074,0.0,824.7985,722.4542,792.96704,1178.9744,1047.2161,0.0,0.0,-0.19085693359375,0.0767822265625,0.96343994140625,3.551483154296875,-3.013153076171875,-9.1815185546875,3222637.3626373624,120807399.26739928,62371208.79120879,76.177895,1.0,1.0,4.0,1.0,2.0,40.0,/muse/elements/jaw_clench,0 days 00:00:00
2023-11-16 11:35:31.116,0.9493757,0.0,0.44155863,0.0,0.53766036,0.0,0.25782758,0.0,0.64909786,0.0,0.34768704,0.0,1.120467,0.0,0.29469597,0.0,0.7871468,0.0,0.21020074,0.0,806.26373,872.3443,784.90845,1119.7435,1019.81683,0.0,0.0,-0.19085693359375,0.0767822265625,0.96343994140625,3.551483154296875,-3.013153076171875,-9.1815185546875,3222637.3626373624,120807399.26739928,62371208.79120879,76.177895,1.0,1.0,4.0,1.0,2.0,40.0,/muse/elements/jaw_clench,0 days 00:00:00.001000
2023-11-16 11:35:31.147,0.9493757,0.0,0.44155863,0.0,0.53766036,0.0,0.25782758,0.0,0.64909786,0.0,0.34768704,0.0,1.120467,0.0,0.29469597,0.0,0.7871468,0.0,0.21020074,0.0,773.6264,1518.6447,774.83514,1012.5641,803.44324,0.0,0.0,-0.2265625,0.07489013671875,0.96673583984375,8.23944091796875,-0.366363525390625,-19.791107177734375,3218608.0586080584,120649450.54945056,62297875.45787545,76.306046,1.0,1.0,4.0,1.0,2.0,40.0,/muse/elements/jaw_clench,0 days 00:00:00.031000
2023-11-16 11:35:31.148,0.9493757,0.0,0.44155863,0.0,0.53766036,0.0,0.25782758,0.0,0.64909786,0.0,0.34768704,0.0,1.120467,0.0,0.29469597,0.0,0.7871468,0.0,0.21020074,0.0,790.54944,1278.0952,785.31134,1045.6044,878.7912,0.0,0.0,-0.2265625,0.07489013671875,0.96673583984375,8.23944091796875,-0.366363525390625,-19.791107177734375,3218608.0586080584,120649450.54945056,62297875.45787545,76.306046,1.0,1.0,4.0,1.0,2.0,40.0,/muse/elements/jaw_clench,0 days 00:00:00.001000
2023-11-16 11:35:31.148,0.9493757,0.0,0.44155863,0.0,0.53766036,0.0,0.25782758,0.0,0.64909786,0.0,0.34768704,0.0,1.120467,0.0,0.29469597,0.0,0.7871468,0.0,0.21020074,0.0,809.0842,1174.5421,791.75824,1109.2675,892.49084,0.0,0.0,-0.2265625,0.07489013671875,0.96673583984375,8.23944091796875,-0.366363525390625,-19.791107177734375,3218608.0586080584,120649450.54945056,62297875.45787545,76.306046,1.0,1.0,4.0,1.0,2.0,40.0,/muse/elements/jaw_clench,0 days 00:00:00
2023-11-16 11:35:31.149,0.9493757,0.0,0.44155863,0.0,0.53766036,0.0,0.25782758,0.0,0.64909786,0.0,0.34768704,0.0,1.120467,0.0,0.29469597,0.0,0.7871468,0.0,0.21020074,0.0,799.81683,1424.762,792.5641,1098.7913,834.87177,0.0,0.0,-0.2265625,0.07489013671875,0.96673583984375,8.23944091796875,-0.366363525390625,-19.791107177734375,3218608.0586080584,120649450.54945056,62297875.45787545,76.306046,1.0,1.0,4.0,1.0,2.0,40.0,/muse/elements/jaw_clench,0 days 00:00:00.001000
2023-11-16 11:35:31.149,0.9493757,0.0,0.44155863,0.0,0.53766036,0.0,0.25782758,0.0,0.64909786,0.0,0.34768704,0.0,1.120467,0.0,0.29469597,0.0,0.7871468,0.0,0.21020074,0.0,790.14655,1403.4066,792.1612,1050.0366,839.304,0.0,0.0,-0.2265625,0.07489013671875,0.96673583984375,8.23944091796875,-0.366363525390625,-19.791107177734375,3218608.0586080584,120649450.54945056,62297875.45787545,76.306046,1.0,1.0,4.0,1.0,2.0,40.0,/muse/elements/jaw_clench,0 days 00:00:00
2023-11-16 11:35:31.150,0.9493757,0.0,0.44155863,0.0,0.53766036,0.0,0.25782758,0.0,0.64909786,0.0,0.34768704,0.0,1.120467,0.0,0.29469597,0.0,0.7871468,0.0,0.21020074,0.0,806.26373,1003.2967,791.3553,1067.7656,955.34796,0.0,0.0,-0.2265625,0.07489013671875,0.96673583984375,8.23944091796875,-0.366363525390625,-19.791107177734375,3218608.0586080584,120649450.54945056,62297875.45787545,76.306046,1.0,1.0,4.0,1.0,2.0,40.0,/muse/elements/jaw_clench,0 days 00:00:00.001000
2023-11-16 11:35:31.150,0.9493757,0.0,0.44155863,0.0,0.53766036,0.0,0.25782758,0.0,0.64909786,0.0,0.34768704,0.0,1.120467,0.0,0.29469597,0.0,0.7871468,0.0,0.21020074,0.0,815.12823,858.6447,791.3553,1138.2784,1018.60803,0.0,0.0,-0.2265625,0.07489013671875,0.96673583984375,8.23944091796875,-0.366363525390625,-19.791107177734375,3218608.0586080584,120649450.54945056,62297875.45787545,76.306046,1.0,1.0,4.0,1.0,2.0,40.0,/muse/elements/jaw_clench,0 days 00:00:00
2023-11-16 11:35:31.151,0.9493757,0.0,0.44155863,0.0,0.53766036,0.0,0.25782758,0.0,0.64909786,0.0,0.34768704,0.0,1.120467,0.0,0.29469597,0.0,0.7871468,0.0,0.21020074,0.0,837.28937,946.08057,790.54944,1199.1208,986.77655,0.0,0.0,-0.2265625,0.07489013671875,0.96673583984375,8.23944091796875,-0.366363525390625,-19.791107177734375,3218608.0586080584,120649450.54945056,62297875.45787545,76.306046,1.0,1.0,4.0,1.0,2.0,40.0,/muse/elements/jaw_clench,0 days 00:00:00.001000
2023-11-16 11:35:31.151,0.9493757,0.0,0.44155863,0.0,0.53766036,0.0,0.25782758,0.0,0.64909786,0.0,0.34768704,0.0,1.120467,0.0,0.29469597,0.0,0.7871468,0.0,0.21020074,0.0,832.0513,1170.5128,784.5055,1152.7839,875.9707,0.0,0.0,-0.2265625,0.07489013671875,0.96673583984375,8.23944091796875,-0.366363525390625,-19.791107177734375,3218608.0586080584,120649450.54945056,62297875.45787545,76.306046,1.0,1.0,4.0,1.0,2.0,40.0,/muse/elements/jaw_clench,0 days 00:00:00
2023-11-16 11:35:31.152,0.9493757,0.0,0.44155863,0.0,0.53766036,0.0,0.25782758,0.0,0.64909786,0.0,0.34768704,0.0,1.120467,0.0,0.29469597,0.0,0.7871468,0.0,0.21020074,0.0,828.022,805.05493,801.02563,1080.2565,889.2674,0.0,0.0,-0.2265625,0.07489013671875,0.96673583984375,8.23944091796875,-0.366363525390625,-19.791107177734375,3218608.0586080584,120649450.54945056,62297875.45787545,76.306046,1.0,1.0,4.0,1.0,2.0,40.0,/muse/elements/jaw_clench,0 days 00:00:00.001000
2023-11-16 11:35:31.152,0.9493757,0.0,0.44155863,0.0,0.53766036,0.0,0.25782758,0.0,0.64909786,0.0,0.34768704,0.0,1.120467,0.0,0.29469597,0.0,0.7871468,0.0,0.21020074,0.0,843.73627,118.05861,807.0696,1104.0293,1060.5128,0.0,0.0,-0.2265625,0.07489013671875,0.96673583984375,8.23944091796875,-0.366363525390625,-19.791107177734375,3218608.0586080584,120649450.54945056,62297875.45787545,76.306046,1.0,1.0,4.0,1.0,2.0,40.0,/muse/elements/jaw_clench,0 days 00:00:00
2023-11-16 11:35:31.153,0.9493757,0.0,0.4862902,0.0,0.53766036,0.0,0.271633,0.0,0.64909786,0.0,0.34768704,0.0,1.120467,0.0,0.3054356,0.0,0.7871468,0.0,0.24028116,0.0,826.8132,624.94507,788.5348,1087.1062,983.1502,0.0,0.0,-0.2265625,0.07489013671875,0.96673583984375,8.23944091796875,-0.366363525390625,-19.791107177734375,3218608.0586080584,120649450.54945056,62297875.45787545,76.306046,1.0,1.0,4.0,1.0,2.0,40.0,/muse/elements/jaw_clench,0 days 00:00:00.001000
2023-11-16 11:35:31.177,0.9493757,0.0,0.4862902,0.0,0.53766036,0.0,0.271633,0.0,0.64909786,0.0,0.34768704,0.0,1.120467,0.0,0.3054356,0.0,0.7871468,0.0,0.24028116,0.0,811.9048,1055.2748,792.1612,969.85345,877.1795,0.0,0.0,-0.18731689453125,0.09881591796875,1.00274658203125,9.510498046875,3.267364501953125,-22.886505126953125,3218608.0586080584,120649450.54945056,62297875.45787545,76.306046,1.0,1.0,4.0,1.0,2.0,40.0,/muse/elements/jaw_clench,0 days 00:00:00.024000
2023-11-16 11:35:31.178,0.9493757,0.0,0.4862902,0.0,0.53766036,0.0,0.271633,0.0,0.64909786,0.0,0.34768704,0.0,1.120467,0.0,0.3054356,0.0,0.7871468,0.0,0.24028116,0.0,819.15753,653.5531,799.81683,876.3736,946.4835,0.0,0.0,-0.18731689453125,0.09881591796875,1.00274658203125,9.510498046875,3.267364501953125,-22.886505126953125,3218608.0586080584,120649450.54945056,62297875.45787545,76.306046,1.0,1.0,4.0,1.0,2.0,40.0,/muse/elements/jaw_clench,0 days 00:00:00.001000
2023-11-16 11:35:31.178,0.9493757,0.0,0.4862902,0.0,0.53766036,0.0,0.271633,0.0,0.64909786,0.0,0.34768704,0.0,1.120467,0.0,0.3054356,0.0,0.7871468,0.0,0.24028116,0.0,825.2015,813.1135,804.2491,888.86444,1014.9817,0.0,0.0,-0.18731689453125,0.09881591796875,1.00274658203125,9.510498046875,3.267364501953125,-22.886505126953125,3218608.0586080584,120649450.54945056,62297875.45787545,76.306046,1.0,1.0,4.0,1.0,2.0,40.0,/muse/elements/jaw_clench,0 days 00:00:00
2023-11-16 11:35:31.178,0.9493757,0.0,0.4862902,0.0,0.53766036,0.0,0.271633,0.0,0.64909786,0.0,0.34768704,0.0,1.120467,0.0,0.3054356,0.0,0.7871468,0.0,0.24028116,0.0,812.3077,1343.773,799.41394,911.02563,844.5421,0.0,0.0,-0.18731689453125,0.09881591796875,1.00274658203125,9.510498046875,3.267364501953125,-22.886505126953125,3218608.0586080584,120649450.54945056,62297875.45787545,76.306046,1.0,1.0,4.0,1.0,2.0,40.0,/muse/elements/jaw_clench,0 days 00:00:00
2023-11-16 11:35:31.179,0.9493757,0.0,0.4862902,0.0,0.53766036,0.0,0.271633,0.0,0.64909786,0.0,0.34768704,0.0,1.120467,0.0,0.3054356,0.0,0.7871468,0.0,0.24028116,0.0,820.3663,1155.2014,798.20514,894.90845,771.2088,0.0,0.0,-0.18731689453125,0.09881591796875,1.00274658203125,9.510498046875,3.267364501953125,-22.886505126953125,3218608.0586080584,120649450.54945056,62297875.45787545,76.306046,1.0,1.0,4.0,1.0,2.0,40.0,/muse/elements/jaw_clench,0 days 00:00:00.001000
2023-11-16 11:35:31.179,0.9493757,0.0,0.4862902,0.0,0.53766036,0.0,0.271633,0.0,0.64909786,0.0,0.34768704,0.0,1.120467,0.0,0.3054356,0.0,0.7871468,0.0,0.24028116,0.0,848.5714,804.2491,809.0842,845.34796,834.87177,0.0,0.0,-0.18731689453125,0.09881591796875,1.00274658203125,9.510498046875,3.267364501953125,-22.886505126953125,3218608.0586080584,120649450.54945056,62297875.45787545,76.306046,1.0,1.0,4.0,1.0,2.0,40.0,/muse/elements/jaw_clench,0 days 00:00:00
2023-11-16 11:35:31.179,0.9493757,0.0,0.4862902,0.0,0.53766036,0.0,0.271633,0.0,0.64909786,0.0,0.34768704,0.0,1.120467,0.0,0.3054356,0.0,0.7871468,0.0,0.24028116,0.0,845.34796,683.7729,810.696,811.0989,818.3516,0.0,0.0,-0.18731689453125,0.09881591796875,1.00274658203125,9.510498046875,3.267364501953125,-22.886505126953125,3218608.0586080584,120649450.54945056,62297875.45787545,76.306046,1.0,1.0,4.0,1.0,2.0,40.0,/muse/elements/jaw_clench,0 days 00:00:00
2023-11-16 11:35:31.180,0.9493757,0.0,0.4862902,0.0,0.53766036,0.0,0.271633,0.0,0.64909786,0.0,0.34768704,0.0,1.120467,0.0,0.3054356,0.0,0.7871468,0.0,0.24028116,0.0,807.8755,937.2161,811.0989,839.304,784.5055,0.0,0.0,-0.18731689453125,0.09881591796875,1.00274658203125,9.510498046875,3.267364501953125,-22.886505126953125,3218608.0586080584,120649450.54945056,62297875.45787545,76.306046,1.0,1.0,4.0,1.0,2.0,40.0,/muse/elements/jaw_clench,0 days 00:00:00.001000
2023-11-16 11:35:31.180,0.9493757,0.0,0.4862902,0.0,0.53766036,0.0,0.271633,0.0,0.64909786,0.0,0.34768704,0.0,1.120467,0.0,0.3054356,0.0,0.7871468,0.0,0.24028116,0.0,805.4579,1123.773,814.3223,849.3773,794.17584,0.0,0.0,-0.18731689453125,0.09881591796875,1.00274658203125,9.510498046875,3.267364501953125,-22.886505126953125,3218608.0586080584,120649450.54945056,62297875.45787545,76.306046,1.0,1.0,4.0,1.0,2.0,40.0,/muse/elements/jaw_clench,0 days 00:00:00
2023-11-16 11:35:31.181,0.9493757,0.0,0.4862902,0.0,0.53766036,0.0,0.271633,0.0,0.64909786,0.0,0.34768704,0.0,1.120467,0.0,0.3054356,0.0,0.7871468,0.0,0.24028116,0.0,838.0952,402.9304,815.9341,809.0842,973.47986,0.0,0.0,-0.18731689453125,0.09881591796875,1.00274658203125,9.510498046875,3.267364501953125,-22.886505126953125,3218608.0586080584,120649450.54945056,62297875.45787545,76.306046,1.0,1.0,4.0,1.0,2.0,40.0,/muse/elements/jaw_clench,0 days 00:00:00.001000
2023-11-16 11:35:31.181,0.9493757,0.0,0.4862902,0.0,0.53766036,0.0,0.271633,0.0,0.64909786,0.0,0.34768704,0.0,1.120467,0.0,0.3054356,0.0,0.7871468,0.0,0.24028116,0.0,831.2454,413.4066,812.71063,753.0769,1010.14655,0.0,0.0,-0.18731689453125,0.09881591796875,1.00274658203125,9.510498046875,3.267364501953125,-22.886505126953125,3218608.0586080584,120649450.54945056,62297875.45787545,76.306046,1.0,1.0,4.0,1.0,2.0,40.0,/muse/elements/jaw_clench,0 days 00:00:00
2023-11-16 11:35:31.181,0.9493757,0.0,0.4862902,0.0,0.53766036,0.0,0.271633,0.0,0.64909786,0.0,0.34768704,0.0,1.120467,0.0,0.3054356,0.0,0.7871468,0.0,0.24028116,0.0,827.619,1245.8608,801.02563,790.54944,803.44324,0.0,0.0,-0.18731689453125,0.09881591796875,1.00274658203125,9.510498046875,3.267364501953125,-22.886505126953125,3218608.0586080584,120649450.54945056,62297875.45787545,76.306046,1.0,1.0,4.0,1.0,2.0,40.0,/muse/elements/jaw_clench,0 days 00:00:00
2023-11-16 11:35:31.249,0.9493757,0.0,0.4862902,0.0,0.53766036,0.0,0.271633,0.0,0.64909786,0.0,0.34768704,0.0,1.120467,0.0,0.3054356,0.0,0.7871468,0.0,0.24028116,0.0,837.28937,1084.6886,797.3993,884.0293,899.34064,0.0,0.0,-0.19970703125,0.10272216796875,1.02044677734375,4.8150634765625,-2.489776611328125,-13.331146240234377,3235531.1355311354,120443956.04395604,62280952.38095238,76.42669,1.0,1.0,4.0,1.0,2.0,40.0,/muse/elements/jaw_clench,0 days 00:00:00.068000
2023-11-16 11:35:31.249,0.9493757,0.0,0.4862902,0.0,0.53766036,0.0,0.271633,0.0,0.64909786,0.0,0.34768704,0.0,1.120467,0.0,0.3054356,0.0,0.7871468,0.0,0.24028116,0.0,842.52747,706.7399,813.1135,841.7216,952.1245,0.0,0.0,-0.19970703125,0.10272216796875,1.02044677734375,4.8150634765625,-2.489776611328125,-13.331146240234377,3235531.1355311354,120443956.04395604,62280952.38095238,76.42669,1.0,1.0,4.0,1.0,2.0,40.0,/muse/elements/jaw_clench,0 days 00:00:00
2023-11-16 11:35:31.250,0.9493757,0.0,0.4862902,0.0,0.53766036,0.0,0.271633,0.0,0.64909786,0.0,0.34768704,0.0,1.120467,0.0,0.3054356,0.0,0.7871468,0.0,0.24028116,0.0,834.0659,996.4469,824.7985,771.2088,798.60803,0.0,0.0,-0.19970703125,0.10272216796875,1.02044677734375,4.8150634765625,-2.489776611328125,-13.331146240234377,3235531.1355311354,120443956.04395604,62280952.38095238,76.42669,1.0,1.0,4.0,1.0,2.0,40.0,/muse/elements/jaw_clench,0 days 00:00:00.001000
2023-11-16 11:35:31.250,0.9493757,0.0,0.4862902,0.0,0.53766036,0.0,0.271633,0.0,0.64909786,0.0,0.34768704,0.0,1.120467,0.0,0.3054356,0.0,0.7871468,0.0,0.24028116,0.0,840.10986,1264.3956,823.1868,827.619,794.9817,0.0,0.0,-0.19970703125,0.10272216796875,1.02044677734375,4.8150634765625,-2.489776611328125,-13.331146240234377,3235531.1355311354,120443956.04395604,62280952.38095238,76.42669,1.0,1.0,4.0,1.0,2.0,40.0,/muse/elements/jaw_clench,0 days 00:00:00
2023-11-16 11:35:31.251,0.9493757,0.0,0.4862902,0.0,0.53766036,0.0,0.271633,0.0,0.64909786,0.0,0.34768704,0.0,1.120467,0.0,0.3054356,0.0,0.7871468,0.0,0.24028116,0.0,850.18317,1015.38464,824.3956,894.90845,855.0183,0.0,0.0,-0.19970703125,0.10272216796875,1.02044677734375,4.8150634765625,-2.489776611328125,-13.331146240234377,3235531.1355311354,120443956.04395604,62280952.38095238,76.42669,1.0,1.0,4.0,1.0,2.0,40.0,/muse/elements/jaw_clench,0 days 00:00:00.001000
2023-11-16 11:35:31.251,0.9493757,0.0,0.4862902,0.0,0.53766036,0.0,0.271633,0.0,0.64909786,0.0,0.34768704,0.0,1.120467,0.0,0.3054356,0.0,0.7871468,0.0,0.24028116,0.0,831.6484,712.7839,821.5751,853.00366,887.25275,0.0,0.0,-0.19970703125,0.10272216796875,1.02044677734375,4.8150634765625,-2.489776611328125,-13.331146240234377,3235531.1355311354,120443956.04395604,62280952.38095238,76.42669,1.0,1.0,4.0,1.0,2.0,40.0,/muse/elements/jaw_clench,0 days 00:00:00
2023-11-16 11:35:31.252,0.9493757,0.0,0.4862902,0.0,0.53766036,0.0,0.271633,0.0,0.64909786,0.0,0.34768704,0.0,1.120467,0.0,0.3054356,0.0,0.7871468,0.0,0.24028116,0.0,823.1868,778.46155,812.3077,772.8205,893.2967,0.0,0.0,-0.19970703125,0.10272216796875,1.02044677734375,4.8150634765625,-2.489776611328125,-13.331146240234377,3235531.1355311354,120443956.04395604,62280952.38095238,76.42669,1.0,1.0,4.0,1.0,2.0,40.0,/muse/elements/jaw_clench,0 days 00:00:00.001000
2023-11-16 11:35:31.252,0.9493757,0.0,0.4862902,0.0,0.53766036,0.0,0.271633,0.0,0.64909786,0.0,0.34768704,0.0,1.120467,0.0,0.3054356,0.0,0.7871468,0.0,0.24028116,0.0,813.91943,1104.4323,809.0842,766.3736,823.9927,0.0,0.0,-0.19970703125,0.10272216796875,1.02044677734375,4.8150634765625,-2.489776611328125,-13.331146240234377,3235531.1355311354,120443956.04395604,62280952.38095238,76.42669,1.0,1.0,4.0,1.0,2.0,40.0,/muse/elements/jaw_clench,0 days 00:00:00
2023-11-16 11:35:31.253,0.9493757,0.0,0.4862902,0.0,0.53766036,0.0,0.271633,0.0,0.64909786,0.0,0.34768704,0.0,1.120467,0.0,0.3054356,0.0,0.7871468,0.0,0.24028116,0.0,837.28937,764.7619,821.5751,850.989,950.9158,0.0,0.0,-0.19970703125,0.10272216796875,1.02044677734375,4.8150634765625,-2.489776611328125,-13.331146240234377,3235531.1355311354,120443956.04395604,62280952.38095238,76.42669,1.0,1.0,4.0,1.0,2.0,40.0,/muse/elements/jaw_clench,0 days 00:00:00.001000
2023-11-16 11:35:31.253,0.9493757,0.0,0.4862902,0.0,0.53766036,0.0,0.271633,0.0,0.64909786,0.0,0.34768704,0.0,1.120467,0.0,0.3054356,0.0,0.7871468,0.0,0.24028116,0.0,833.2601,319.12088,820.7692,838.0952,1100.8059,0.0,0.0,-0.19970703125,0.10272216796875,1.02044677734375,4.8150634765625,-2.489776611328125,-13.331146240234377,3235531.1355311354,120443956.04395604,62280952.38095238,76.42669,1.0,1.0,4.0,1.0,2.0,40.0,/muse/elements/jaw_clench,0 days 00:00:00
2023-11-16 11:35:31.254,0.9493757,0.0,0.4862902,0.0,0.53766036,0.0,0.271633,0.0,0.64909786,0.0,0.34768704,0.0,1.120467,0.0,0.3054356,0.0,0.7871468,0.0,0.24028116,0.0,812.3077,932.381,804.2491,676.52014,896.1172,0.0,0.0,-0.19970703125,0.10272216796875,1.02044677734375,4.8150634765625,-2.489776611328125,-13.331146240234377,3235531.1355311354,120443956.04395604,62280952.38095238,76.42669,1.0,1.0,4.0,1.0,2.0,40.0,/muse/elements/jaw_clench,0 days 00:00:00.001000
2023-11-16 11:35:31.254,0.9493757,0.0,0.4862902,0.0,0.53766036,0.0,0.271633,0.0,0.64909786,0.0,0.34768704,0.0,1.120467,0.0,0.3054356,0.0,0.7871468,0.0,0.24028116,0.0,831.6484,962.1978,803.0403,640.65936,806.6667,0.0,0.0,-0.19970703125,0.10272216796875,1.02044677734375,4.8150634765625,-2.489776611328125,-13.331146240234377,3235531.1355311354,120443956.04395604,62280952.38095238,76.42669,1.0,1.0,4.0,1.0,2.0,40.0,/muse/elements/jaw_clench,0 days 00:00:00
2023-11-16 11:35:31.278,0.9493757,0.0,0.4862902,0.0,0.53766036,0.0,0.271633,0.0,0.64909786,0.0,0.34768704,0.0,1.120467,0.0,0.3054356,0.0,0.7871468,0.0,0.24028116,0.0,832.0513,362.23444,811.9048,752.674,997.25275,0.0,0.0,-0.20037841796875,0.08160400390625,0.96759033203125,1.443023681640625,-12.134857177734377,-4.71038818359375,3235531.1355311354,120443956.04395604,62280952.38095238,76.42669,1.0,1.0,4.0,1.0,2.0,40.0,/muse/elements/jaw_clench,0 days 00:00:00.024000
2023-11-16 11:35:31.279,0.9493757,0.0,0.537612,0.0,0.53766036,0.0,0.27974796,0.0,0.64909786,0.0,0.35033247,0.0,1.120467,0.0,0.31503668,0.0,0.7871468,0.0,0.27372888,0.0,812.3077,408.97437,807.0696,803.8461,1023.0403,0.0,0.0,-0.20037841796875,0.08160400390625,0.96759033203125,1.443023681640625,-12.134857177734377,-4.71038818359375,3235531.1355311354,120443956.04395604,62280952.38095238,76.42669,1.0,1.0,4.0,1.0,2.0,40.0,/muse/elements/jaw_clench,0 days 00:00:00.001000
2023-11-16 11:35:31.281,0.9493757,0.0,0.537612,0.0,0.53766036,0.0,0.27974796,0.0,0.64909786,0.0,0.35033247,0.0,1.120467,0.0,0.31503668,0.0,0.7871468,0.0,0.27372888,0.0,774.83514,1001.28204,805.05493,749.45056,838.0952,0.0,0.0,-0.20037841796875,0.08160400390625,0.96759033203125,1.443023681640625,-12.134857177734377,-4.71038818359375,3235531.1355311354,120443956.04395604,62280952.38095238,76.42669,1.0,1.0,4.0,1.0,2.0,40.0,/muse/elements/jaw_clench,0 days 00:00:00.002000
2023-11-16 11:35:31.282,0.9493757,0.0,0.537612,0.0,0.53766036,0.0,0.27974796,0.0,0.64909786,0.0,0.35033247,0.0,1.120467,0.0,0.31503668,0.0,0.7871468,0.0,0.27372888,0.0,784.10254,1014.17584,821.978,776.4469,819.5604,0.0,0.0,-0.20037841796875,0.08160400390625,0.96759033203125,1.443023681640625,-12.134857177734377,-4.71038818359375,3235531.1355311354,120443956.04395604,62280952.38095238,76.42669,1.0,1.0,4.0,1.0,2.0,40.0,/muse/elements/jaw_clench,0 days 00:00:00.001000
2023-11-16 11:35:31.282,0.9493757,0.0,0.537612,0.0,0.53766036,0.0,0.27974796,0.0,0.64909786,0.0,0.35033247,0.0,1.120467,0.0,0.31503668,0.0,0.7871468,0.0,0.27372888,0.0,816.337,601.978,819.15753,901.3553,873.95605,0.0,0.0,-0.20037841796875,0.08160400390625,0.96759033203125,1.443023681640625,-12.134857177734377,-4.71038818359375,3235531.1355311354,120443956.04395604,62280952.38095238,76.42669,1.0,1.0,4.0,1.0,2.0,40.0,/muse/elements/jaw_clench,0 days 00:00:00
2023-11-16 11:35:31.283,0.9493757,0.0,0.537612,0.0,0.53766036,0.0,0.27974796,0.0,0.64909786,0.0,0.35033247,0.0,1.120467,0.0,0.31503668,0.0,0.7871468,0.0,0.27372888,0.0,829.6337,458.13187,813.5165,968.6447,910.6227,0.0,0.0,-0.20037841796875,0.08160400390625,0.96759033203125,1.443023681640625,-12.134857177734377,-4.71038818359375,3235531.1355311354,120443956.04395604,62280952.38095238,76.42669,1.0,1.0,4.0,1.0,2.0,40.0,/muse/elements/jaw_clench,0 days 00:00:00.001000
2023-11-16 11:35:31.283,0.9493757,0.0,0.537612,0.0,0.53766036,0.0,0.27974796,0.0,0.64909786,0.0,0.35033247,0.0,1.120467,0.0,0.31503668,0.0,0.7871468,0.0,0.27372888,0.0,821.1722,533.47986,807.8755,919.0842,803.44324,0.0,0.0,-0.20037841796875,0.08160400390625,0.96759033203125,1.443023681640625,-12.134857177734377,-4.71038818359375,3235531.1355311354,120443956.04395604,62280952.38095238,76.42669,1.0,1.0,4.0,1.0,2.0,40.0,/muse/elements/jaw_clench,0 days 00:00:00
2023-11-16 11:35:31.283,0.9493757,0.0,0.537612,0.0,0.53766036,0.0,0.27974796,0.0,0.64909786,0.0,0.35033247,0.0,1.120467,0.0,0.31503668,0.0,0.7871468,0.0,0.27372888,0.0,812.3077,558.86444,811.50183,865.4945,725.6777,0.0,0.0,-0.20037841796875,0.08160400390625,0.96759033203125,1.443023681640625,-12.134857177734377,-4.71038818359375,3235531.1355311354,120443956.04395604,62280952.38095238,76.42669,1.0,1.0,4.0,1.0,2.0,40.0,/muse/elements/jaw_clench,0 days 00:00:00
2023-11-16 11:35:31.284,0.9493757,0.0,0.537612,0.0,0.53766036,0.0,0.27974796,0.0,0.64909786,0.0,0.35033247,0.0,1.120467,0.0,0.31503668,0.0,0.7871468,0.0,0.27372888,0.0,824.7985,229.67033,812.71063,948.49817,946.08057,0.0,0.0,-0.20037841796875,0.08160400390625,0.96759033203125,1.443023681640625,-12.134857177734377,-4.71038818359375,3235531.1355311354,120443956.04395604,62280952.38095238,76.42669,1.0,1.0,4.0,1.0,2.0,40.0,/muse/elements/jaw_clench,0 days 00:00:00.001000
2023-11-16 11:35:31.284,0.9493757,0.0,0.537612,0.0,0.53766036,0.0,0.27974796,0.0,0.64909786,0.0,0.35033247,0.0,1.120467,0.0,0.31503668,0.0,0.7871468,0.0,0.27372888,0.0,812.3077,402.52747,802.23444,1023.0403,1007.72894,0.0,0.0,-0.20037841796875,0.08160400390625,0.96759033203125,1.443023681640625,-12.134857177734377,-4.71038818359375,3235531.1355311354,120443956.04395604,62280952.38095238,76.42669,1.0,1.0,4.0,1.0,2.0,40.0,/muse/elements/jaw_clench,0 days 00:00:00
2023-11-16 11:35:31.285,0.9493757,0.0,0.537612,0.0,0.53766036,0.0,0.27974796,0.0,0.64909786,0.0,0.35033247,0.0,1.120467,0.0,0.31503668,0.0,0.7871468,0.0,0.27372888,0.0,800.2198,1008.93774,799.81683,991.6117,816.337,0.0,0.0,-0.20037841796875,0.08160400390625,0.96759033203125,1.443023681640625,-12.134857177734377,-4.71038818359375,3235531.1355311354,120443956.04395604,62280952.38095238,76.42669,1.0,1.0,4.0,1.0,2.0,40.0,/muse/elements/jaw_clench,0 days 00:00:00.001000
2023-11-16 11:35:31.285,0.9493757,0.0,0.537612,0.0,0.53766036,0.0,0.27974796,0.0,0.64909786,0.0,0.35033247,0.0,1.120467,0.0,0.31503668,0.0,0.7871468,0.0,0.27372888,0.0,786.1172,770.80585,803.8461,964.21246,796.5934,0.0,0.0,-0.20037841796875,0.08160400390625,0.96759033203125,1.443023681640625,-12.134857177734377,-4.71038818359375,3235531.1355311354,120443956.04395604,62280952.38095238,76.42669,1.0,1.0,4.0,1.0,2.0,40.0,/muse/elements/jaw_clench,0 days 00:00:00
2023-11-16 11:35:31.315,0.9493757,0.0,0.537612,0.0,0.53766036,0.0,0.27974796,0.0,0.64909786,0.0,0.35033247,0.0,1.120467,0.0,0.31503668,0.0,0.7871468,0.0,0.27372888,0.0,787.72894,616.8865,800.6227,984.35895,792.1612,0.0,0.0,-0.20037841796875,0.08160400390625,0.96759033203125,1.443023681640625,-12.134857177734377,-4.71038818359375,3240366.3003663,120324688.64468864,62244688.64468864,76.540276,1.0,1.0,4.0,1.0,2.0,40.0,/muse/elements/jaw_clench,0 days 00:00:00.030000
2023-11-16 11:35:31.316,0.9493757,0.0,0.537612,0.0,0.53766036,0.0,0.27974796,0.0,0.64909786,0.0,0.35033247,0.0,1.120467,0.0,0.31503668,0.0,0.7871468,0.0,0.27372888,0.0,810.293,916.6667,805.05493,1034.7252,810.293,0.0,0.0,-0.20037841796875,0.08160400390625,0.96759033203125,1.443023681640625,-12.134857177734377,-4.71038818359375,3240366.3003663,120324688.64468864,62244688.64468864,76.540276,1.0,1.0,4.0,1.0,2.0,40.0,/muse/elements/jaw_clench,0 days 00:00:00.001000
2023-11-16 11:35:31.316,0.9493757,0.0,0.537612,0.0,0.53766036,0.0,0.27974796,0.0,0.64909786,0.0,0.35033247,0.0,1.120467,0.0,0.31503668,0.0,0.7871468,0.0,0.27372888,0.0,808.2784,1059.3041,796.99634,1028.6813,855.42126,0.0,0.0,-0.20037841796875,0.08160400390625,0.96759033203125,1.443023681640625,-12.134857177734377,-4.71038818359375,3240366.3003663,120324688.64468864,62244688.64468864,76.540276,1.0,1.0,4.0,1.0,2.0,40.0,/muse/elements/jaw_clench,0 days 00:00:00
2023-11-16 11:35:31.316,0.9493757,0.0,0.537612,0.0,0.53766036,0.0,0.27974796,0.0,0.64909786,0.0,0.35033247,0.0,1.120467,0.0,0.31503668,0.0,0.7871468,0.0,0.27372888,0.0,822.381,790.14655,798.60803,967.8388,919.4872,0.0,0.0,-0.20037841796875,0.08160400390625,0.96759033203125,1.443023681640625,-12.134857177734377,-4.71038818359375,3240366.3003663,120324688.64468864,62244688.64468864,76.540276,1.0,1.0,4.0,1.0,2.0,40.0,/muse/elements/jaw_clench,0 days 00:00:00
2023-11-16 11:35:31.317,0.9493757,0.0,0.537612,0.0,0.53766036,0.0,0.27974796,0.0,0.64909786,0.0,0.35033247,0.0,1.120467,0.0,0.31503668,0.0,0.7871468,0.0,0.27372888,0.0,843.3333,583.8461,813.1135,945.2747,935.2015,0.0,0.0,-0.20037841796875,0.08160400390625,0.96759033203125,1.443023681640625,-12.134857177734377,-4.71038818359375,3240366.3003663,120324688.64468864,62244688.64468864,76.540276,1.0,1.0,4.0,1.0,2.0,40.0,/muse/elements/jaw_clench,0 days 00:00:00.001000
2023-11-16 11:35:31.317,0.9493757,0.0,0.537612,0.0,0.53766036,0.0,0.27974796,0.0,0.64909786,0.0,0.35033247,0.0,1.120467,0.0,0.31503668,0.0,0.7871468,0.0,0.27372888,0.0,839.707,680.9524,821.1722,1008.93774,938.4249,0.0,0.0,-0.20037841796875,0.08160400390625,0.96759033203125,1.443023681640625,-12.134857177734377,-4.71038818359375,3240366.3003663,120324688.64468864,62244688.64468864,76.540276,1.0,1.0,4.0,1.0,2.0,40.0,/muse/elements/jaw_clench,0 days 00:00:00
2023-11-16 11:35:31.318,0.9493757,0.0,0.537612,0.0,0.53766036,0.0,0.27974796,0.0,0.64909786,0.0,0.35033247,0.0,1.120467,0.0,0.31503668,0.0,0.7871468,0.0,0.27372888,0.0,827.2161,750.2564,815.12823,1039.1575,909.41394,0.0,0.0,-0.20037841796875,0.08160400390625,0.96759033203125,1.443023681640625,-12.134857177734377,-4.71038818359375,3240366.3003663,120324688.64468864,62244688.64468864,76.540276,1.0,1.0,4.0,1.0,2.0,40.0,/muse/elements/jaw_clench,0 days 00:00:00.001000
2023-11-16 11:35:31.318,0.9493757,0.0,0.537612,0.0,0.53766036,0.0,0.27974796,0.0,0.64909786,0.0,0.35033247,0.0,1.120467,0.0,0.31503668,0.0,0.7871468,0.0,0.27372888,0.0,831.2454,520.989,794.57874,949.304,935.2015,0.0,0.0,-0.20037841796875,0.08160400390625,0.96759033203125,1.443023681640625,-12.134857177734377,-4.71038818359375,3240366.3003663,120324688.64468864,62244688.64468864,76.540276,1.0,1.0,4.0,1.0,2.0,40.0,/muse/elements/jaw_clench,0 days 00:00:00
2023-11-16 11:35:31.318,0.9493757,0.0,0.537612,0.0,0.53766036,0.0,0.27974796,0.0,0.64909786,0.0,0.35033247,0.0,1.120467,0.0,0.31503668,0.0,0.7871468,0.0,0.27372888,0.0,847.3626,60.84249,819.15753,907.8022,1083.0769,0.0,0.0,-0.20037841796875,0.08160400390625,0.96759033203125,1.443023681640625,-12.134857177734377,-4.71038818359375,3240366.3003663,120324688.64468864,62244688.64468864,76.540276,1.0,1.0,4.0,1.0,2.0,40.0,/muse/elements/jaw_clench,0 days 00:00:00
2023-11-16 11:35:31.319,0.9493757,0.0,0.537612,0.0,0.53766036,0.0,0.27974796,0.0,0.64909786,0.0,0.35033247,0.0,1.120467,0.0,0.31503668,0.0,0.7871468,0.0,0.27372888,0.0,819.15753,722.8571,835.2747,914.2491,948.9011,0.0,0.0,-0.20037841796875,0.08160400390625,0.96759033203125,1.443023681640625,-12.134857177734377,-4.71038818359375,3240366.3003663,120324688.64468864,62244688.64468864,76.540276,1.0,1.0,4.0,1.0,2.0,40.0,/muse/elements/jaw_clench,0 days 00:00:00.001000
2023-11-16 11:35:31.319,0.9493757,0.0,0.537612,0.0,0.53766036,0.0,0.27974796,0.0,0.64909786,0.0,0.35033247,0.0,1.120467,0.0,0.31503668,0.0,0.7871468,0.0,0.27372888,0.0,817.5458,1330.8792,813.5165,924.7253,823.1868,0.0,0.0,-0.20037841796875,0.08160400390625,0.96759033203125,1.443023681640625,-12.134857177734377,-4.71038818359375,3240366.3003663,120324688.64468864,62244688.64468864,76.540276,1.0,1.0,4.0,1.0,2.0,40.0,/muse/elements/jaw_clench,0 days 00:00:00
2023-11-16 11:35:31.319,0.9493757,0.0,0.537612,0.0,0.53766036,0.0,0.27974796,0.0,0.64909786,0.0,0.35033247,0.0,1.120467,0.0,0.31503668,0.0,0.7871468,0.0,0.27372888,0.0,828.022,923.5165,802.23444,879.19415,895.7143,0.0,0.0,-0.20037841796875,0.08160400390625,0.96759033203125,1.443023681640625,-12.134857177734377,-4.71038818359375,3240366.3003663,120324688.64468864,62244688.64468864,76.540276,1.0,1.0,4.0,1.0,2.0,40.0,/muse/elements/jaw_clench,0 days 00:00:00
2023-11-16 11:35:31.379,0.9493757,0.0,0.537612,0.0,0.53766036,0.0,0.27974796,0.0,0.64909786,0.0,0.35033247,0.0,1.120467,0.0,0.31503668,0.0,0.7871468,0.0,0.27372888,0.0,807.47253,881.2088,804.65204,797.3993,854.61536,0.0,0.0,-0.207275390625,0.073974609375,0.985107421875,1.973876953125,-2.73651123046875,-1.383209228515625,3240366.3003663,120324688.64468864,62244688.64468864,76.540276,1.0,1.0,4.0,1.0,2.0,40.0,/muse/elements/jaw_clench,0 days 00:00:00.060000
2023-11-16 11:35:31.380,0.9493757,0.0,0.537612,0.0,0.53766036,0.0,0.27974796,0.0,0.64909786,0.0,0.35033247,0.0,1.120467,0.0,0.31503668,0.0,0.7871468,0.0,0.27372888,0.0,817.9487,1272.0513,798.60803,799.81683,779.2674,0.0,0.0,-0.207275390625,0.073974609375,0.985107421875,1.973876953125,-2.73651123046875,-1.383209228515625,3240366.3003663,120324688.64468864,62244688.64468864,76.540276,1.0,1.0,4.0,1.0,2.0,40.0,/muse/elements/jaw_clench,0 days 00:00:00.001000
2023-11-16 11:35:31.380,0.9493757,0.0,0.537612,0.0,0.53766036,0.0,0.27974796,0.0,0.64909786,0.0,0.35033247,0.0,1.120467,0.0,0.31503668,0.0,0.7871468,0.0,0.27372888,0.0,833.663,1375.6044,803.8461,840.9158,818.7546,0.0,0.0,-0.207275390625,0.073974609375,0.985107421875,1.973876953125,-2.73651123046875,-1.383209228515625,3240366.3003663,120324688.64468864,62244688.64468864,76.540276,1.0,1.0,4.0,1.0,2.0,40.0,/muse/elements/jaw_clench,0 days 00:00:00
