TimeStamp,Delta_TP9,Delta_AF7,Delta_AF8,Delta_TP10,Theta_TP9,Theta_AF7,Theta_AF8,Theta_TP10,Alpha_TP9,Alpha_AF7,Alpha_AF8,Alpha_TP10,Beta_TP9,Beta_AF7,Beta_AF8,Beta_TP10,Gamma_TP9,Gamma_AF7,Gamma_AF8,Gamma_TP10,RAW_TP9,RAW_AF7,RAW_AF8,RAW_TP10,AUX_RIGHT,Mellow,Concentration,Accelerometer_X,Accelerometer_Y,Accelerometer_Z,Gyro_X,Gyro_Y,Gyro_Z,PPG_Ambient,PPG_IR,PPG_Red,Heart_Rate,HeadBandOn,HSI_TP9,HSI_AF7,HSI_AF8,HSI_TP10,Battery,Elements,TimeDifference
2023-11-09 13:36:32.401,1.1405445,1.0284768,1.4157095,0.96040064,0.7775288,0.54892135,0.77210647,0.63645005,0.78240955,0.5927529,0.5306281,0.42828798,0.34629026,0.25477642,0.43590704,0.610389,0.31617102,-0.20287047,-0.08271622,-0.09923525,837.28937,805.4579,812.3077,842.9304,745.0183,0.0,0.0,0.17242431640625,0.06536865234375,0.9718017578125,3.177642822265625,-1.383209228515625,-0.0897216796875,540732.6007326007,94554065.93406594,59235604.395604394,79.86944,1.0,1.0,1.0,1.0,1.0,20.0,,0 days 00:00:00.067000
2023-11-09 13:36:32.402,1.1405445,1.0284768,1.4157095,0.96040064,0.7775288,0.54892135,0.77210647,0.63645005,0.78240955,0.5927529,0.5306281,0.42828798,0.34629026,0.25477642,0.43590704,0.610389,0.31617102,-0.20287047,-0.08271622,-0.09923525,846.9597,806.6667,813.1135,858.6447,723.663,0.0,0.0,0.17242431640625,0.06536865234375,0.9718017578125,3.177642822265625,-1.383209228515625,-0.0897216796875,540732.6007326007,94554065.93406594,59235604.395604394,79.86944,1.0,1.0,1.0,1.0,1.0,20.0,,0 days 00:00:00.001000
2023-11-09 13:36:32.402,1.1405445,1.0284768,1.4157095,0.96040064,0.7775288,0.54892135,0.77210647,0.63645005,0.78240955,0.5927529,0.5306281,0.42828798,0.34629026,0.25477642,0.43590704,0.610389,0.31617102,-0.20287047,-0.08271622,-0.09923525,844.5421,807.47253,812.71063,852.1978,696.6667,0.0,0.0,0.17242431640625,0.06536865234375,0.9718017578125,3.177642822265625,-1.383209228515625,-0.0897216796875,540732.6007326007,94554065.93406594,59235604.395604394,79.86944,1.0,1.0,1.0,1.0,1.0,20.0,,0 days 00:00:00
2023-11-09 13:36:32.403,1.1405445,1.0284768,1.4157095,0.96040064,0.7775288,0.54892135,0.77210647,0.63645005,0.78240955,0.5927529,0.5306281,0.42828798,0.34629026,0.25477642,0.43590704,0.610389,0.31617102,-0.20287047,-0.08271622,-0.09923525,852.6007,814.3223,814.3223,848.5714,730.9158,0.0,0.0,0.17242431640625,0.06536865234375,0.9718017578125,3.177642822265625,-1.383209228515625,-0.0897216796875,540732.6007326007,94554065.93406594,59235604.395604394,79.86944,1.0,1.0,1.0,1.0,1.0,20.0,,0 days 00:00:00.001000
2023-11-09 13:36:32.403,1.1405445,1.0284768,1.4157095,0.96040064,0.7775288,0.54892135,0.77210647,0.63645005,0.78240955,0.5927529,0.5306281,0.42828798,0.34629026,0.25477642,0.43590704,0.610389,0.31617102,-0.20287047,-0.08271622,-0.09923525,864.2857,819.15753,811.50183,863.0769,697.47253,0.0,0.0,0.17242431640625,0.06536865234375,0.9718017578125,3.177642822265625,-1.383209228515625,-0.0897216796875,540732.6007326007,94554065.93406594,59235604.395604394,79.86944,1.0,1.0,1.0,1.0,1.0,20.0,,0 days 00:00:00
2023-11-09 13:36:32.404,1.1405445,1.044523,1.4157095,0.96040064,0.7775288,0.53596646,0.77210647,0.63645005,0.78240955,0.5787808,0.5306281,0.42828798,0.34629026,0.2510744,0.43590704,0.610389,0.31617102,-0.19542706,-0.08271622,-0.09923525,854.61536,811.9048,799.81683,867.50916,726.8865,0.0,0.0,0.17242431640625,0.06536865234375,0.9718017578125,3.177642822265625,-1.383209228515625,-0.0897216796875,540732.6007326007,94554065.93406594,59235604.395604394,79.86944,1.0,1.0,1.0,1.0,1.0,20.0,,0 days 00:00:00.001000
2023-11-09 13:36:32.407,1.1405445,1.044523,1.4157095,0.96040064,0.7775288,0.53596646,0.77210647,0.63645005,0.78240955,0.5787808,0.5306281,0.42828798,0.34629026,0.2510744,0.43590704,0.610389,0.31617102,-0.19542706,-0.08271622,-0.09923525,843.3333,805.8608,798.20514,854.61536,746.63007,0.0,0.0,0.17242431640625,0.06536865234375,0.9718017578125,3.177642822265625,-1.383209228515625,-0.0897216796875,540732.6007326007,94554065.93406594,59235604.395604394,79.86944,1.0,1.0,1.0,1.0,1.0,20.0,,0 days 00:00:00.003000
2023-11-09 13:36:32.407,1.1405445,1.044523,1.4157095,0.96040064,0.7775288,0.53596646,0.77210647,0.63645005,0.78240955,0.5787808,0.5306281,0.42828798,0.34629026,0.2510744,0.43590704,0.610389,0.31617102,-0.19542706,-0.08271622,-0.09923525,840.5128,803.0403,808.2784,866.30035,882.8205,0.0,0.0,0.17242431640625,0.06536865234375,0.9718017578125,3.177642822265625,-1.383209228515625,-0.0897216796875,540732.6007326007,94554065.93406594,59235604.395604394,79.86944,1.0,1.0,1.0,1.0,1.0,20.0,,0 days 00:00:00
2023-11-09 13:36:32.408,1.1405445,1.044523,1.4157095,0.96040064,0.7775288,0.53596646,0.77210647,0.63645005,0.78240955,0.5787808,0.5306281,0.42828798,0.34629026,0.2510744,0.43590704,0.610389,0.31617102,-0.19542706,-0.08271622,-0.09923525,849.7802,803.0403,805.4579,869.12085,916.26373,0.0,0.0,0.17242431640625,0.06536865234375,0.9718017578125,3.177642822265625,-1.383209228515625,-0.0897216796875,540732.6007326007,94554065.93406594,59235604.395604394,79.86944,1.0,1.0,1.0,1.0,1.0,20.0,,0 days 00:00:00.001000
2023-11-09 13:36:32.408,1.1405445,1.044523,1.4157095,0.96040064,0.7775288,0.53596646,0.77210647,0.63645005,0.78240955,0.5787808,0.5306281,0.42828798,0.34629026,0.2510744,0.43590704,0.610389,0.31617102,-0.19542706,-0.08271622,-0.09923525,854.61536,803.8461,801.8315,851.79486,780.07324,0.0,0.0,0.17242431640625,0.06536865234375,0.9718017578125,3.177642822265625,-1.383209228515625,-0.0897216796875,540732.6007326007,94554065.93406594,59235604.395604394,79.86944,1.0,1.0,1.0,1.0,1.0,20.0,,0 days 00:00:00
2023-11-09 13:36:32.409,1.1405445,1.044523,1.4157095,0.96040064,0.7775288,0.53596646,0.77210647,0.63645005,0.78240955,0.5787808,0.5306281,0.42828798,0.34629026,0.2510744,0.43590704,0.610389,0.31617102,-0.19542706,-0.08271622,-0.09923525,854.21246,802.23444,803.0403,850.18317,797.3993,0.0,0.0,0.17242431640625,0.06536865234375,0.9718017578125,3.177642822265625,-1.383209228515625,-0.0897216796875,540732.6007326007,94554065.93406594,59235604.395604394,79.86944,1.0,1.0,1.0,1.0,1.0,20.0,,0 days 00:00:00.001000
2023-11-09 13:36:32.409,1.1405445,1.044523,1.4157095,0.96040064,0.7775288,0.53596646,0.77210647,0.63645005,0.78240955,0.5787808,0.5306281,0.42828798,0.34629026,0.2510744,0.43590704,0.610389,0.31617102,-0.19542706,-0.08271622,-0.09923525,856.2271,805.4579,803.44324,846.1539,817.1429,0.0,0.0,0.17242431640625,0.06536865234375,0.9718017578125,3.177642822265625,-1.383209228515625,-0.0897216796875,540732.6007326007,94554065.93406594,59235604.395604394,79.86944,1.0,1.0,1.0,1.0,1.0,20.0,,0 days 00:00:00
2023-11-09 13:36:32.449,1.1405445,1.044523,1.4157095,0.96040064,0.7775288,0.53596646,0.77210647,0.63645005,0.78240955,0.5787808,0.5306281,0.42828798,0.34629026,0.2510744,0.43590704,0.610389,0.31617102,-0.19542706,-0.08271622,-0.09923525,845.7509,807.47253,800.2198,841.31866,771.2088,0.0,0.0,0.17669677734375,0.0616455078125,0.9769287109375,2.564544677734375,-7.70111083984375,0.515899658203125,542344.3223443223,94599194.13919412,59309743.58974359,79.86944,1.0,1.0,1.0,1.0,1.0,20.0,,0 days 00:00:00.040000
2023-11-09 13:36:32.450,1.1405445,1.044523,1.4157095,0.96040064,0.7775288,0.53596646,0.77210647,0.63645005,0.78240955,0.5787808,0.5306281,0.42828798,0.34629026,0.2510744,0.43590704,0.610389,0.31617102,-0.19542706,-0.08271622,-0.09923525,839.304,808.68134,800.2198,851.79486,756.30035,0.0,0.0,0.17669677734375,0.0616455078125,0.9769287109375,2.564544677734375,-7.70111083984375,0.515899658203125,542344.3223443223,94599194.13919412,59309743.58974359,79.86944,1.0,1.0,1.0,1.0,1.0,20.0,,0 days 00:00:00.001000
2023-11-09 13:36:32.450,1.1405445,1.044523,1.4157095,0.96040064,0.7775288,0.53596646,0.77210647,0.63645005,0.78240955,0.5787808,0.5306281,0.42828798,0.34629026,0.2510744,0.43590704,0.610389,0.31617102,-0.19542706,-0.08271622,-0.09923525,845.7509,810.696,805.8608,865.4945,829.6337,0.0,0.0,0.17669677734375,0.0616455078125,0.9769287109375,2.564544677734375,-7.70111083984375,0.515899658203125,542344.3223443223,94599194.13919412,59309743.58974359,79.86944,1.0,1.0,1.0,1.0,1.0,20.0,,0 days 00:00:00
2023-11-09 13:36:32.451,1.1405445,1.044523,1.4157095,0.96040064,0.7775288,0.53596646,0.77210647,0.63645005,0.78240955,0.5787808,0.5306281,0.42828798,0.34629026,0.2510744,0.43590704,0.610389,0.31617102,-0.19542706,-0.08271622,-0.09923525,830.4396,805.4579,805.8608,848.5714,765.56775,0.0,0.0,0.17669677734375,0.0616455078125,0.9769287109375,2.564544677734375,-7.70111083984375,0.515899658203125,542344.3223443223,94599194.13919412,59309743.58974359,79.86944,1.0,1.0,1.0,1.0,1.0,20.0,,0 days 00:00:00.001000
2023-11-09 13:36:32.452,1.1405445,1.044523,1.4157095,0.96040064,0.7775288,0.53596646,0.77210647,0.63645005,0.78240955,0.5787808,0.5306281,0.42828798,0.34629026,0.2510744,0.43590704,0.610389,0.31617102,-0.19542706,-0.08271622,-0.09923525,834.87177,805.4579,798.60803,830.84247,693.44324,0.0,0.0,0.17669677734375,0.0616455078125,0.9769287109375,2.564544677734375,-7.70111083984375,0.515899658203125,542344.3223443223,94599194.13919412,59309743.58974359,79.86944,1.0,1.0,1.0,1.0,1.0,20.0,,0 days 00:00:00.001000
2023-11-09 13:36:32.452,1.1405445,1.044523,1.4157095,0.96040064,0.7775288,0.53596646,0.77210647,0.63645005,0.78240955,0.5787808,0.5306281,0.42828798,0.34629026,0.2510744,0.43590704,0.610389,0.31617102,-0.19542706,-0.08271622,-0.09923525,850.18317,807.8755,799.011,840.9158,787.326,0.0,0.0,0.17669677734375,0.0616455078125,0.9769287109375,2.564544677734375,-7.70111083984375,0.515899658203125,542344.3223443223,94599194.13919412,59309743.58974359,79.86944,1.0,1.0,1.0,1.0,1.0,20.0,,0 days 00:00:00
2023-11-09 13:36:32.453,1.1405445,1.044523,1.4157095,0.96040064,0.7775288,0.53596646,0.77210647,0.63645005,0.78240955,0.5787808,0.5306281,0.42828798,0.34629026,0.2510744,0.43590704,0.610389,0.31617102,-0.19542706,-0.08271622,-0.09923525,850.58606,807.8755,801.02563,846.1539,923.5165,0.0,0.0,0.17669677734375,0.0616455078125,0.9769287109375,2.564544677734375,-7.70111083984375,0.515899658203125,542344.3223443223,94599194.13919412,59309743.58974359,79.86944,1.0,1.0,1.0,1.0,1.0,20.0,,0 days 00:00:00.001000
2023-11-09 13:36:32.453,1.1405445,1.044523,1.4157095,0.96040064,0.7775288,0.53596646,0.77210647,0.63645005,0.78240955,0.5787808,0.5306281,0.42828798,0.34629026,0.2510744,0.43590704,0.610389,0.31617102,-0.19542706,-0.08271622,-0.09923525,846.1539,813.1135,799.81683,840.5128,1048.8279,0.0,0.0,0.17669677734375,0.0616455078125,0.9769287109375,2.564544677734375,-7.70111083984375,0.515899658203125,542344.3223443223,94599194.13919412,59309743.58974359,79.86944,1.0,1.0,1.0,1.0,1.0,20.0,,0 days 00:00:00
2023-11-09 13:36:32.454,1.1405445,1.044523,1.4157095,0.96040064,0.7775288,0.53596646,0.77210647,0.63645005,0.78240955,0.5787808,0.5306281,0.42828798,0.34629026,0.2510744,0.43590704,0.610389,0.31617102,-0.19542706,-0.08271622,-0.09923525,839.707,817.5458,794.17584,822.381,851.79486,0.0,0.0,0.17669677734375,0.0616455078125,0.9769287109375,2.564544677734375,-7.70111083984375,0.515899658203125,542344.3223443223,94599194.13919412,59309743.58974359,79.86944,1.0,1.0,1.0,1.0,1.0,20.0,,0 days 00:00:00.001000
2023-11-09 13:36:32.454,1.1405445,1.044523,1.4157095,0.96040064,0.7775288,0.53596646,0.77210647,0.63645005,0.78240955,0.5787808,0.5306281,0.42828798,0.34629026,0.2510744,0.43590704,0.610389,0.31617102,-0.19542706,-0.08271622,-0.09923525,839.707,817.9487,789.34064,807.0696,698.2784,0.0,0.0,0.17669677734375,0.0616455078125,0.9769287109375,2.564544677734375,-7.70111083984375,0.515899658203125,542344.3223443223,94599194.13919412,59309743.58974359,79.86944,1.0,1.0,1.0,1.0,1.0,20.0,,0 days 00:00:00
2023-11-09 13:36:32.455,1.1405445,1.044523,1.4157095,0.96040064,0.7775288,0.53596646,0.77210647,0.63645005,0.78240955,0.5787808,0.5306281,0.42828798,0.34629026,0.2510744,0.43590704,0.610389,0.31617102,-0.19542706,-0.08271622,-0.09923525,850.989,812.71063,794.17584,832.0513,820.3663,0.0,0.0,0.17669677734375,0.0616455078125,0.9769287109375,2.564544677734375,-7.70111083984375,0.515899658203125,542344.3223443223,94599194.13919412,59309743.58974359,79.86944,1.0,1.0,1.0,1.0,1.0,20.0,,0 days 00:00:00.001000
2023-11-09 13:36:32.455,1.1405445,1.044523,1.4157095,0.96040064,0.7775288,0.53596646,0.77210647,0.63645005,0.78240955,0.5787808,0.5306281,0.42828798,0.34629026,0.2510744,0.43590704,0.610389,0.31617102,-0.19542706,-0.08271622,-0.09923525,842.52747,809.4872,798.20514,826.8132,864.2857,0.0,0.0,0.17669677734375,0.0616455078125,0.9769287109375,2.564544677734375,-7.70111083984375,0.515899658203125,542344.3223443223,94599194.13919412,59309743.58974359,79.86944,1.0,1.0,1.0,1.0,1.0,20.0,,0 days 00:00:00
2023-11-09 13:36:32.490,1.1405445,1.044523,1.4157095,0.96040064,0.7775288,0.53596646,0.77210647,0.63645005,0.78240955,0.5787808,0.5306281,0.42828798,0.34629026,0.2510744,0.43590704,0.610389,0.31617102,-0.19542706,-0.08271622,-0.09923525,819.15753,810.696,800.2198,808.68134,793.7729,0.0,0.0,0.18804931640625,0.0565185546875,0.97430419921875,2.3626708984375,-11.5740966796875,2.041168212890625,542344.3223443223,94599194.13919412,59309743.58974359,79.86944,1.0,1.0,1.0,1.0,1.0,20.0,,0 days 00:00:00.035000
2023-11-09 13:36:32.491,1.1405445,1.044523,1.4157095,0.96040064,0.7775288,0.53596646,0.77210647,0.63645005,0.78240955,0.5787808,0.5306281,0.42828798,0.34629026,0.2510744,0.43590704,0.610389,0.31617102,-0.19542706,-0.08271622,-0.09923525,830.0366,808.68134,800.6227,819.9634,687.8022,0.0,0.0,0.18804931640625,0.0565185546875,0.97430419921875,2.3626708984375,-11.5740966796875,2.041168212890625,542344.3223443223,94599194.13919412,59309743.58974359,79.86944,1.0,1.0,1.0,1.0,1.0,20.0,,0 days 00:00:00.001000
2023-11-09 13:36:32.492,1.1405445,1.044523,1.4157095,0.96040064,0.7775288,0.53596646,0.77210647,0.63645005,0.78240955,0.5787808,0.5306281,0.42828798,0.34629026,0.2510744,0.43590704,0.610389,0.31617102,-0.19542706,-0.08271622,-0.09923525,847.76556,807.47253,798.60803,833.663,734.1392,0.0,0.0,0.18804931640625,0.0565185546875,0.97430419921875,2.3626708984375,-11.5740966796875,2.041168212890625,542344.3223443223,94599194.13919412,59309743.58974359,79.86944,1.0,1.0,1.0,1.0,1.0,20.0,,0 days 00:00:00.001000
2023-11-09 13:36:32.492,1.1405445,1.044523,1.4157095,0.96040064,0.7775288,0.53596646,0.77210647,0.63645005,0.78240955,0.5787808,0.5306281,0.42828798,0.34629026,0.2510744,0.43590704,0.610389,0.31617102,-0.19542706,-0.08271622,-0.09923525,848.5714,818.3516,792.96704,827.2161,802.6374,0.0,0.0,0.18804931640625,0.0565185546875,0.97430419921875,2.3626708984375,-11.5740966796875,2.041168212890625,542344.3223443223,94599194.13919412,59309743.58974359,79.86944,1.0,1.0,1.0,1.0,1.0,20.0,,0 days 00:00:00
2023-11-09 13:36:32.493,1.1405445,1.044523,1.4157095,0.96040064,0.7775288,0.53596646,0.77210647,0.63645005,0.78240955,0.5787808,0.5306281,0.42828798,0.34629026,0.2510744,0.43590704,0.610389,0.31617102,-0.19542706,-0.08271622,-0.09923525,843.73627,815.12823,796.1905,825.6044,662.01465,0.0,0.0,0.18804931640625,0.0565185546875,0.97430419921875,2.3626708984375,-11.5740966796875,2.041168212890625,542344.3223443223,94599194.13919412,59309743.58974359,79.86944,1.0,1.0,1.0,1.0,1.0,20.0,,0 days 00:00:00.001000
2023-11-09 13:36:32.493,1.1405445,1.044523,1.4157095,0.96040064,0.7775288,0.53596646,0.77210647,0.63645005,0.78240955,0.5787808,0.5306281,0.42828798,0.34629026,0.2510744,0.43590704,0.610389,0.31617102,-0.19542706,-0.08271622,-0.09923525,839.304,805.8608,806.6667,835.2747,637.8388,0.0,0.0,0.18804931640625,0.0565185546875,0.97430419921875,2.3626708984375,-11.5740966796875,2.041168212890625,542344.3223443223,94599194.13919412,59309743.58974359,79.86944,1.0,1.0,1.0,1.0,1.0,20.0,,0 days 00:00:00
2023-11-09 13:36:32.494,1.1405445,1.044523,1.4157095,0.96040064,0.7775288,0.53596646,0.77210647,0.63645005,0.78240955,0.5787808,0.5306281,0.42828798,0.34629026,0.2510744,0.43590704,0.610389,0.31617102,-0.19542706,-0.08271622,-0.09923525,829.2308,805.8608,809.0842,842.9304,1021.02563,0.0,0.0,0.18804931640625,0.0565185546875,0.97430419921875,2.3626708984375,-11.5740966796875,2.041168212890625,542344.3223443223,94599194.13919412,59309743.58974359,79.86944,1.0,1.0,1.0,1.0,1.0,20.0,,0 days 00:00:00.001000
2023-11-09 13:36:32.494,1.1405445,1.0635793,1.4157095,0.96040064,0.7775288,0.51072687,0.77210647,0.63645005,0.78240955,0.5555561,0.5306281,0.42828798,0.34629026,0.24534236,0.43590704,0.610389,0.31617102,-0.19077815,-0.08271622,-0.09923525,824.3956,802.6374,804.2491,839.707,1062.1245,0.0,0.0,0.18804931640625,0.0565185546875,0.97430419921875,2.3626708984375,-11.5740966796875,2.041168212890625,542344.3223443223,94599194.13919412,59309743.58974359,79.86944,1.0,1.0,1.0,1.0,1.0,20.0,,0 days 00:00:00
2023-11-09 13:36:32.496,1.1405445,1.0635793,1.4157095,0.96040064,0.7775288,0.51072687,0.77210647,0.63645005,0.78240955,0.5555561,0.5306281,0.42828798,0.34629026,0.24534236,0.43590704,0.610389,0.31617102,-0.19077815,-0.08271622,-0.09923525,823.1868,803.0403,804.2491,798.20514,696.6667,0.0,0.0,0.18804931640625,0.0565185546875,0.97430419921875,2.3626708984375,-11.5740966796875,2.041168212890625,542344.3223443223,94599194.13919412,59309743.58974359,79.86944,1.0,1.0,1.0,1.0,1.0,20.0,,0 days 00:00:00.002000
2023-11-09 13:36:32.496,1.1405445,1.0635793,1.4157095,0.96040064,0.7775288,0.51072687,0.77210647,0.63645005,0.78240955,0.5555561,0.5306281,0.42828798,0.34629026,0.24534236,0.43590704,0.610389,0.31617102,-0.19077815,-0.08271622,-0.09923525,810.293,799.81683,809.0842,784.90845,637.8388,0.0,0.0,0.18804931640625,0.0565185546875,0.97430419921875,2.3626708984375,-11.5740966796875,2.041168212890625,542344.3223443223,94599194.13919412,59309743.58974359,79.86944,1.0,1.0,1.0,1.0,1.0,20.0,,0 days 00:00:00
2023-11-09 13:36:32.497,1.1405445,1.0635793,1.4157095,0.96040064,0.7775288,0.51072687,0.77210647,0.63645005,0.78240955,0.5555561,0.5306281,0.42828798,0.34629026,0.24534236,0.43590704,0.610389,0.31617102,-0.19077815,-0.08271622,-0.09923525,810.293,801.4286,809.89014,812.3077,698.68134,0.0,0.0,0.18804931640625,0.0565185546875,0.97430419921875,2.3626708984375,-11.5740966796875,2.041168212890625,542344.3223443223,94599194.13919412,59309743.58974359,79.86944,1.0,1.0,1.0,1.0,1.0,20.0,,0 days 00:00:00.001000
2023-11-09 13:36:32.497,1.1405445,1.0635793,1.4157095,0.96040064,0.7775288,0.51072687,0.77210647,0.63645005,0.78240955,0.5555561,0.5306281,0.42828798,0.34629026,0.24534236,0.43590704,0.610389,0.31617102,-0.19077815,-0.08271622,-0.09923525,810.696,807.0696,823.1868,831.2454,717.2161,0.0,0.0,0.18804931640625,0.0565185546875,0.97430419921875,2.3626708984375,-11.5740966796875,2.041168212890625,542344.3223443223,94599194.13919412,59309743.58974359,79.86944,1.0,1.0,1.0,1.0,1.0,20.0,,0 days 00:00:00
2023-11-09 13:36:32.527,1.1405445,1.0635793,1.4157095,0.96040064,0.7775288,0.51072687,0.77210647,0.63645005,0.78240955,0.5555561,0.5306281,0.42828798,0.34629026,0.24534236,0.43590704,0.610389,0.31617102,-0.19077815,-0.08271622,-0.09923525,805.05493,807.47253,833.2601,812.71063,736.1539,0.0,0.0,0.18804931640625,0.0565185546875,0.97430419921875,2.3626708984375,-11.5740966796875,2.041168212890625,540732.6007326007,94569377.28937729,59342783.88278388,79.86944,1.0,1.0,1.0,1.0,1.0,20.0,,0 days 00:00:00.030000
2023-11-09 13:36:32.528,1.1405445,1.0635793,1.4157095,0.96040064,0.7775288,0.51072687,0.77210647,0.63645005,0.78240955,0.5555561,0.5306281,0.42828798,0.34629026,0.24534236,0.43590704,0.610389,0.31617102,-0.19077815,-0.08271622,-0.09923525,817.9487,810.293,830.84247,804.65204,802.6374,0.0,0.0,0.18804931640625,0.0565185546875,0.97430419921875,2.3626708984375,-11.5740966796875,2.041168212890625,540732.6007326007,94569377.28937729,59342783.88278388,79.86944,1.0,1.0,1.0,1.0,1.0,20.0,,0 days 00:00:00.001000
2023-11-09 13:36:32.528,1.1405445,1.0635793,1.4157095,0.96040064,0.7775288,0.51072687,0.77210647,0.63645005,0.78240955,0.5555561,0.5306281,0.42828798,0.34629026,0.24534236,0.43590704,0.610389,0.31617102,-0.19077815,-0.08271622,-0.09923525,815.5311,810.696,834.87177,817.5458,763.5531,0.0,0.0,0.18804931640625,0.0565185546875,0.97430419921875,2.3626708984375,-11.5740966796875,2.041168212890625,540732.6007326007,94569377.28937729,59342783.88278388,79.86944,1.0,1.0,1.0,1.0,1.0,20.0,,0 days 00:00:00
2023-11-09 13:36:32.529,1.1405445,1.0635793,1.4157095,0.96040064,0.7775288,0.51072687,0.77210647,0.63645005,0.78240955,0.5555561,0.5306281,0.42828798,0.34629026,0.24534236,0.43590704,0.610389,0.31617102,-0.19077815,-0.08271622,-0.09923525,838.49817,813.5165,839.304,840.5128,832.8571,0.0,0.0,0.18804931640625,0.0565185546875,0.97430419921875,2.3626708984375,-11.5740966796875,2.041168212890625,540732.6007326007,94569377.28937729,59342783.88278388,79.86944,1.0,1.0,1.0,1.0,1.0,20.0,,0 days 00:00:00.001000
2023-11-09 13:36:32.530,1.1405445,1.0635793,1.4157095,0.96040064,0.7775288,0.51072687,0.77210647,0.63645005,0.78240955,0.5555561,0.5306281,0.42828798,0.34629026,0.24534236,0.43590704,0.610389,0.31617102,-0.19077815,-0.08271622,-0.09923525,854.21246,817.9487,832.8571,824.7985,886.8498,0.0,0.0,0.18804931640625,0.0565185546875,0.97430419921875,2.3626708984375,-11.5740966796875,2.041168212890625,540732.6007326007,94569377.28937729,59342783.88278388,79.86944,1.0,1.0,1.0,1.0,1.0,20.0,,0 days 00:00:00.001000
2023-11-09 13:36:32.530,1.1405445,1.0635793,1.4157095,0.96040064,0.7775288,0.51072687,0.77210647,0.63645005,0.78240955,0.5555561,0.5306281,0.42828798,0.34629026,0.24534236,0.43590704,0.610389,0.31617102,-0.19077815,-0.08271622,-0.09923525,833.663,813.1135,838.9011,821.5751,915.8608,0.0,0.0,0.18804931640625,0.0565185546875,0.97430419921875,2.3626708984375,-11.5740966796875,2.041168212890625,540732.6007326007,94569377.28937729,59342783.88278388,79.86944,1.0,1.0,1.0,1.0,1.0,20.0,,0 days 00:00:00
2023-11-09 13:36:32.531,1.1405445,1.0635793,1.4157095,0.96040064,0.7775288,0.51072687,0.77210647,0.63645005,0.78240955,0.5555561,0.5306281,0.42828798,0.34629026,0.24534236,0.43590704,0.610389,0.31617102,-0.19077815,-0.08271622,-0.09923525,824.7985,804.2491,843.73627,858.6447,1135.8608,0.0,0.0,0.18804931640625,0.0565185546875,0.97430419921875,2.3626708984375,-11.5740966796875,2.041168212890625,540732.6007326007,94569377.28937729,59342783.88278388,79.86944,1.0,1.0,1.0,1.0,1.0,20.0,,0 days 00:00:00.001000
2023-11-09 13:36:32.531,1.1405445,1.0635793,1.4157095,0.96040064,0.7775288,0.51072687,0.77210647,0.63645005,0.78240955,0.5555561,0.5306281,0.42828798,0.34629026,0.24534236,0.43590704,0.610389,0.31617102,-0.19077815,-0.08271622,-0.09923525,821.1722,802.6374,842.1245,857.8388,1067.7656,0.0,0.0,0.18804931640625,0.0565185546875,0.97430419921875,2.3626708984375,-11.5740966796875,2.041168212890625,540732.6007326007,94569377.28937729,59342783.88278388,79.86944,1.0,1.0,1.0,1.0,1.0,20.0,,0 days 00:00:00
2023-11-09 13:36:32.532,1.1405445,1.0635793,1.4157095,0.96040064,0.7775288,0.51072687,0.77210647,0.63645005,0.78240955,0.5555561,0.5306281,0.42828798,0.34629026,0.24534236,0.43590704,0.610389,0.31617102,-0.19077815,-0.08271622,-0.09923525,820.3663,809.4872,840.5128,826.8132,780.07324,0.0,0.0,0.18804931640625,0.0565185546875,0.97430419921875,2.3626708984375,-11.5740966796875,2.041168212890625,540732.6007326007,94569377.28937729,59342783.88278388,79.86944,1.0,1.0,1.0,1.0,1.0,20.0,,0 days 00:00:00.001000
2023-11-09 13:36:32.532,1.1405445,1.0635793,1.4157095,0.96040064,0.7775288,0.51072687,0.77210647,0.63645005,0.78240955,0.5555561,0.5306281,0.42828798,0.34629026,0.24534236,0.43590704,0.610389,0.31617102,-0.19077815,-0.08271622,-0.09923525,825.6044,808.68134,834.87177,815.5311,827.2161,0.0,0.0,0.18804931640625,0.0565185546875,0.97430419921875,2.3626708984375,-11.5740966796875,2.041168212890625,540732.6007326007,94569377.28937729,59342783.88278388,79.86944,1.0,1.0,1.0,1.0,1.0,20.0,,0 days 00:00:00
2023-11-09 13:36:32.533,1.1405445,1.0635793,1.4157095,0.96040064,0.7775288,0.51072687,0.77210647,0.63645005,0.78240955,0.5555561,0.5306281,0.42828798,0.34629026,0.24534236,0.43590704,0.610389,0.31617102,-0.19077815,-0.08271622,-0.09923525,809.89014,803.44324,840.9158,830.0366,907.8022,0.0,0.0,0.18804931640625,0.0565185546875,0.97430419921875,2.3626708984375,-11.5740966796875,2.041168212890625,540732.6007326007,94569377.28937729,59342783.88278388,79.86944,1.0,1.0,1.0,1.0,1.0,20.0,,0 days 00:00:00.001000
2023-11-09 13:36:32.534,1.1405445,1.0635793,1.4157095,0.96040064,0.7775288,0.51072687,0.77210647,0.63645005,0.78240955,0.5555561,0.5306281,0.42828798,0.34629026,0.24534236,0.43590704,0.610389,0.31617102,-0.19077815,-0.08271622,-0.09923525,810.293,805.8608,845.34796,830.0366,774.83514,0.0,0.0,0.18804931640625,0.0565185546875,0.97430419921875,2.3626708984375,-11.5740966796875,2.041168212890625,540732.6007326007,94569377.28937729,59342783.88278388,79.86944,1.0,1.0,1.0,1.0,1.0,20.0,,0 days 00:00:00.001000
2023-11-09 13:36:32.596,1.1405445,1.0635793,1.4157095,0.96040064,0.7775288,0.51072687,0.77210647,0.63645005,0.78240955,0.5555561,0.5306281,0.42828798,0.34629026,0.24534236,0.43590704,0.610389,0.31617102,-0.19077815,-0.08271622,-0.09923525,828.8278,807.8755,841.31866,829.2308,753.8828,0.0,0.0,0.20172119140625,0.0599365234375,0.98974609375,2.415008544921875,-17.099456787109375,3.028106689453125,540732.6007326007,94569377.28937729,59342783.88278388,79.86944,1.0,1.0,1.0,1.0,1.0,20.0,,0 days 00:00:00.062000
2023-11-09 13:36:32.597,1.1405445,1.0635793,1.4157095,0.96040064,0.7775288,0.51072687,0.77210647,0.63645005,0.78240955,0.5555561,0.5306281,0.42828798,0.34629026,0.24534236,0.43590704,0.610389,0.31617102,-0.19077815,-0.08271622,-0.09923525,817.5458,801.4286,838.9011,832.0513,723.663,0.0,0.0,0.20172119140625,0.0599365234375,0.98974609375,2.415008544921875,-17.099456787109375,3.028106689453125,540732.6007326007,94569377.28937729,59342783.88278388,79.86944,1.0,1.0,1.0,1.0,1.0,20.0,,0 days 00:00:00.001000
2023-11-09 13:36:32.597,1.1405445,1.0635793,1.4157095,0.96040064,0.7775288,0.51072687,0.77210647,0.63645005,0.78240955,0.5555561,0.5306281,0.42828798,0.34629026,0.24534236,0.43590704,0.610389,0.31617102,-0.19077815,-0.08271622,-0.09923525,815.12823,801.4286,838.9011,823.1868,678.93774,0.0,0.0,0.20172119140625,0.0599365234375,0.98974609375,2.415008544921875,-17.099456787109375,3.028106689453125,540732.6007326007,94569377.28937729,59342783.88278388,79.86944,1.0,1.0,1.0,1.0,1.0,20.0,,0 days 00:00:00
2023-11-09 13:36:32.598,1.1405445,1.0635793,1.4157095,0.96040064,0.7775288,0.51072687,0.77210647,0.63645005,0.78240955,0.5555561,0.5306281,0.42828798,0.34629026,0.24534236,0.43590704,0.610389,0.31617102,-0.19077815,-0.08271622,-0.09923525,811.9048,805.4579,842.52747,819.9634,688.20514,0.0,0.0,0.20172119140625,0.0599365234375,0.98974609375,2.415008544921875,-17.099456787109375,3.028106689453125,540732.6007326007,94569377.28937729,59342783.88278388,79.86944,1.0,1.0,1.0,1.0,1.0,20.0,,0 days 00:00:00.001000
2023-11-09 13:36:32.598,1.1405445,1.0635793,1.4157095,0.96040064,0.7775288,0.51072687,0.77210647,0.63645005,0.78240955,0.5555561,0.5306281,0.42828798,0.34629026,0.24534236,0.43590704,0.610389,0.31617102,-0.19077815,-0.08271622,-0.09923525,813.91943,807.8755,848.1685,836.4835,760.32965,0.0,0.0,0.20172119140625,0.0599365234375,0.98974609375,2.415008544921875,-17.099456787109375,3.028106689453125,540732.6007326007,94569377.28937729,59342783.88278388,79.86944,1.0,1.0,1.0,1.0,1.0,20.0,,0 days 00:00:00
2023-11-09 13:36:32.598,1.1405445,1.0635793,1.4157095,0.96040064,0.7775288,0.51072687,0.77210647,0.63645005,0.78240955,0.5555561,0.5306281,0.42828798,0.34629026,0.24534236,0.43590704,0.610389,0.31617102,-0.19077815,-0.08271622,-0.09923525,816.7399,807.0696,846.1539,828.022,826.8132,0.0,0.0,0.20172119140625,0.0599365234375,0.98974609375,2.415008544921875,-17.099456787109375,3.028106689453125,540732.6007326007,94569377.28937729,59342783.88278388,79.86944,1.0,1.0,1.0,1.0,1.0,20.0,,0 days 00:00:00
2023-11-09 13:36:32.599,1.1405445,1.0635793,1.4157095,0.96040064,0.7775288,0.51072687,0.77210647,0.63645005,0.78240955,0.5555561,0.5306281,0.42828798,0.34629026,0.24534236,0.43590704,0.610389,0.31617102,-0.19077815,-0.08271622,-0.09923525,816.337,809.89014,844.5421,815.5311,754.68866,0.0,0.0,0.20172119140625,0.0599365234375,0.98974609375,2.415008544921875,-17.099456787109375,3.028106689453125,540732.6007326007,94569377.28937729,59342783.88278388,79.86944,1.0,1.0,1.0,1.0,1.0,20.0,,0 days 00:00:00.001000
2023-11-09 13:36:32.599,1.1405445,1.0635793,1.4157095,0.96040064,0.7775288,0.51072687,0.77210647,0.63645005,0.78240955,0.5555561,0.5306281,0.42828798,0.34629026,0.24534236,0.43590704,0.610389,0.31617102,-0.19077815,-0.08271622,-0.09923525,818.7546,809.4872,840.10986,828.022,726.4835,0.0,0.0,0.20172119140625,0.0599365234375,0.98974609375,2.415008544921875,-17.099456787109375,3.028106689453125,540732.6007326007,94569377.28937729,59342783.88278388,79.86944,1.0,1.0,1.0,1.0,1.0,20.0,,0 days 00:00:00
2023-11-09 13:36:32.599,1.1405445,1.0635793,1.4157095,0.96040064,0.7775288,0.51072687,0.77210647,0.63645005,0.78240955,0.5555561,0.5306281,0.42828798,0.34629026,0.24534236,0.43590704,0.610389,0.31617102,-0.19077815,-0.08271622,-0.09923525,821.978,809.4872,840.5128,837.6923,717.619,0.0,0.0,0.20172119140625,0.0599365234375,0.98974609375,2.415008544921875,-17.099456787109375,3.028106689453125,540732.6007326007,94569377.28937729,59342783.88278388,79.86944,1.0,1.0,1.0,1.0,1.0,20.0,,0 days 00:00:00
2023-11-09 13:36:32.600,1.1405445,1.0795795,1.4157095,0.96040064,0.7775288,0.4802438,0.77210647,0.63645005,0.78240955,0.49943015,0.5306281,0.42828798,0.34629026,0.24007343,0.43590704,0.610389,0.31617102,-0.18985121,-0.08271622,-0.09923525,820.3663,810.293,842.1245,847.3626,857.4359,0.0,0.0,0.20172119140625,0.0599365234375,0.98974609375,2.415008544921875,-17.099456787109375,3.028106689453125,540732.6007326007,94569377.28937729,59342783.88278388,79.86944,1.0,1.0,1.0,1.0,1.0,20.0,,0 days 00:00:00.001000
2023-11-09 13:36:32.602,1.1405445,1.0795795,1.4157095,0.96040064,0.7775288,0.4802438,0.77210647,0.63645005,0.78240955,0.49943015,0.5306281,0.42828798,0.34629026,0.24007343,0.43590704,0.610389,0.31617102,-0.18985121,-0.08271622,-0.09923525,809.89014,809.89014,840.9158,840.10986,868.71796,0.0,0.0,0.20172119140625,0.0599365234375,0.98974609375,2.415008544921875,-17.099456787109375,3.028106689453125,540732.6007326007,94569377.28937729,59342783.88278388,79.86944,1.0,1.0,1.0,1.0,1.0,20.0,,0 days 00:00:00.002000
2023-11-09 13:36:32.602,1.1405445,1.0795795,1.4157095,0.96040064,0.7775288,0.4802438,0.77210647,0.63645005,0.78240955,0.49943015,0.5306281,0.42828798,0.34629026,0.24007343,0.43590704,0.610389,0.31617102,-0.18985121,-0.08271622,-0.09923525,801.4286,812.71063,840.10986,831.6484,655.9707,0.0,0.0,0.20172119140625,0.0599365234375,0.98974609375,2.415008544921875,-17.099456787109375,3.028106689453125,540732.6007326007,94569377.28937729,59342783.88278388,79.86944,1.0,1.0,1.0,1.0,1.0,20.0,,0 days 00:00:00
2023-11-09 13:36:32.640,1.1405445,1.0795795,1.4157095,0.96040064,0.7775288,0.4802438,0.77210647,0.63645005,0.78240955,0.49943015,0.5306281,0.42828798,0.34629026,0.24007343,0.43590704,0.610389,0.31617102,-0.18985121,-0.08271622,-0.09923525,819.9634,813.91943,835.6777,846.55676,749.85345,0.0,0.0,0.21844482421875,0.06134033203125,1.00457763671875,1.18133544921875,-29.286651611328125,1.435546875,531062.2710622711,94583882.78388278,59400000.0,79.86944,1.0,1.0,1.0,1.0,1.0,20.0,,0 days 00:00:00.038000
2023-11-09 13:36:32.641,1.1405445,1.0795795,1.4157095,0.96040064,0.7775288,0.4802438,0.77210647,0.63645005,0.78240955,0.49943015,0.5306281,0.42828798,0.34629026,0.24007343,0.43590704,0.610389,0.31617102,-0.18985121,-0.08271622,-0.09923525,818.7546,812.3077,841.31866,848.1685,806.26373,0.0,0.0,0.21844482421875,0.06134033203125,1.00457763671875,1.18133544921875,-29.286651611328125,1.435546875,531062.2710622711,94583882.78388278,59400000.0,79.86944,1.0,1.0,1.0,1.0,1.0,20.0,,0 days 00:00:00.001000
2023-11-09 13:36:32.642,1.1405445,1.0795795,1.4157095,0.96040064,0.7775288,0.4802438,0.77210647,0.63645005,0.78240955,0.49943015,0.5306281,0.42828798,0.34629026,0.24007343,0.43590704,0.610389,0.31617102,-0.18985121,-0.08271622,-0.09923525,803.8461,811.0989,845.34796,830.84247,745.0183,0.0,0.0,0.21844482421875,0.06134033203125,1.00457763671875,1.18133544921875,-29.286651611328125,1.435546875,531062.2710622711,94583882.78388278,59400000.0,79.86944,1.0,1.0,1.0,1.0,1.0,20.0,,0 days 00:00:00.001000
2023-11-09 13:36:32.642,1.1405445,1.0795795,1.4157095,0.96040064,0.7775288,0.4802438,0.77210647,0.63645005,0.78240955,0.49943015,0.5306281,0.42828798,0.34629026,0.24007343,0.43590704,0.610389,0.31617102,-0.18985121,-0.08271622,-0.09923525,801.02563,811.50183,837.6923,816.337,707.9487,0.0,0.0,0.21844482421875,0.06134033203125,1.00457763671875,1.18133544921875,-29.286651611328125,1.435546875,531062.2710622711,94583882.78388278,59400000.0,79.86944,1.0,1.0,1.0,1.0,1.0,20.0,,0 days 00:00:00
2023-11-09 13:36:32.642,1.1405445,1.0795795,1.4157095,0.96040064,0.7775288,0.4802438,0.77210647,0.63645005,0.78240955,0.49943015,0.5306281,0.42828798,0.34629026,0.24007343,0.43590704,0.610389,0.31617102,-0.18985121,-0.08271622,-0.09923525,807.47253,811.9048,832.4542,821.5751,749.45056,0.0,0.0,0.21844482421875,0.06134033203125,1.00457763671875,1.18133544921875,-29.286651611328125,1.435546875,531062.2710622711,94583882.78388278,59400000.0,79.86944,1.0,1.0,1.0,1.0,1.0,20.0,,0 days 00:00:00
2023-11-09 13:36:32.643,1.1405445,1.0795795,1.4157095,0.96040064,0.7775288,0.4802438,0.77210647,0.63645005,0.78240955,0.49943015,0.5306281,0.42828798,0.34629026,0.24007343,0.43590704,0.610389,0.31617102,-0.18985121,-0.08271622,-0.09923525,811.9048,811.0989,837.28937,834.0659,841.31866,0.0,0.0,0.21844482421875,0.06134033203125,1.00457763671875,1.18133544921875,-29.286651611328125,1.435546875,531062.2710622711,94583882.78388278,59400000.0,79.86944,1.0,1.0,1.0,1.0,1.0,20.0,,0 days 00:00:00.001000
2023-11-09 13:36:32.643,1.1405445,1.0795795,1.4157095,0.96040064,0.7775288,0.4802438,0.77210647,0.63645005,0.78240955,0.49943015,0.5306281,0.42828798,0.34629026,0.24007343,0.43590704,0.610389,0.31617102,-0.18985121,-0.08271622,-0.09923525,792.5641,808.68134,841.7216,822.7839,870.32965,0.0,0.0,0.21844482421875,0.06134033203125,1.00457763671875,1.18133544921875,-29.286651611328125,1.435546875,531062.2710622711,94583882.78388278,59400000.0,79.86944,1.0,1.0,1.0,1.0,1.0,20.0,,0 days 00:00:00
2023-11-09 13:36:32.643,1.1405445,1.0795795,1.4157095,0.96040064,0.7775288,0.4802438,0.77210647,0.63645005,0.78240955,0.49943015,0.5306281,0.42828798,0.34629026,0.24007343,0.43590704,0.610389,0.31617102,-0.18985121,-0.08271622,-0.09923525,787.326,807.47253,844.1392,812.71063,826.0073,0.0,0.0,0.21844482421875,0.06134033203125,1.00457763671875,1.18133544921875,-29.286651611328125,1.435546875,531062.2710622711,94583882.78388278,59400000.0,79.86944,1.0,1.0,1.0,1.0,1.0,20.0,,0 days 00:00:00
2023-11-09 13:36:32.644,1.1405445,1.0795795,1.4157095,0.96040064,0.7775288,0.4802438,0.77210647,0.63645005,0.78240955,0.49943015,0.5306281,0.42828798,0.34629026,0.24007343,0.43590704,0.610389,0.31617102,-0.18985121,-0.08271622,-0.09923525,809.0842,812.3077,850.58606,823.5897,871.13556,0.0,0.0,0.21844482421875,0.06134033203125,1.00457763671875,1.18133544921875,-29.286651611328125,1.435546875,531062.2710622711,94583882.78388278,59400000.0,79.86944,1.0,1.0,1.0,1.0,1.0,20.0,,0 days 00:00:00.001000
2023-11-09 13:36:32.644,1.1405445,1.0795795,1.4157095,0.96040064,0.7775288,0.4802438,0.77210647,0.63645005,0.78240955,0.49943015,0.5306281,0.42828798,0.34629026,0.24007343,0.43590704,0.610389,0.31617102,-0.18985121,-0.08271622,-0.09923525,818.7546,810.696,853.00366,846.9597,1164.4689,0.0,0.0,0.21844482421875,0.06134033203125,1.00457763671875,1.18133544921875,-29.286651611328125,1.435546875,531062.2710622711,94583882.78388278,59400000.0,79.86944,1.0,1.0,1.0,1.0,1.0,20.0,,0 days 00:00:00
2023-11-09 13:36:32.645,1.1405445,1.0795795,1.4157095,0.96040064,0.7775288,0.4802438,0.77210647,0.63645005,0.78240955,0.49943015,0.5306281,0.42828798,0.34629026,0.24007343,0.43590704,0.610389,0.31617102,-0.18985121,-0.08271622,-0.09923525,805.8608,810.293,845.7509,828.022,1086.7032,0.0,0.0,0.21844482421875,0.06134033203125,1.00457763671875,1.18133544921875,-29.286651611328125,1.435546875,531062.2710622711,94583882.78388278,59400000.0,79.86944,1.0,1.0,1.0,1.0,1.0,20.0,,0 days 00:00:00.001000
2023-11-09 13:36:32.645,1.1405445,1.0795795,1.4157095,0.96040064,0.7775288,0.4802438,0.77210647,0.63645005,0.78240955,0.49943015,0.5306281,0.42828798,0.34629026,0.24007343,0.43590704,0.610389,0.31617102,-0.18985121,-0.08271622,-0.09923525,804.2491,814.7253,843.3333,787.72894,770.40295,0.0,0.0,0.21844482421875,0.06134033203125,1.00457763671875,1.18133544921875,-29.286651611328125,1.435546875,531062.2710622711,94583882.78388278,59400000.0,79.86944,1.0,1.0,1.0,1.0,1.0,20.0,,0 days 00:00:00
2023-11-09 13:36:32.703,1.1405445,1.0795795,1.4157095,0.96040064,0.7775288,0.4802438,0.77210647,0.63645005,0.78240955,0.49943015,0.5306281,0.42828798,0.34629026,0.24007343,0.43590704,0.610389,0.31617102,-0.18985121,-0.08271622,-0.09923525,809.4872,813.5165,847.3626,811.9048,788.1319,0.0,0.0,0.2904052734375,0.0643310546875,0.98028564453125,0.231781005859375,-26.36322021484375,-0.381317138671875,531062.2710622711,94583882.78388278,59400000.0,79.86944,1.0,1.0,1.0,1.0,1.0,20.0,,0 days 00:00:00.058000
2023-11-09 13:36:32.704,1.1405445,1.0795795,1.4157095,0.96040064,0.7775288,0.4802438,0.77210647,0.63645005,0.78240955,0.49943015,0.5306281,0.42828798,0.34629026,0.24007343,0.43590704,0.610389,0.31617102,-0.18985121,-0.08271622,-0.09923525,810.696,813.91943,849.7802,824.7985,853.00366,0.0,0.0,0.2904052734375,0.0643310546875,0.98028564453125,0.231781005859375,-26.36322021484375,-0.381317138671875,531062.2710622711,94583882.78388278,59400000.0,79.86944,1.0,1.0,1.0,1.0,1.0,20.0,,0 days 00:00:00.001000
2023-11-09 13:36:32.704,1.1405445,1.0795795,1.4157095,0.96040064,0.7775288,0.4802438,0.77210647,0.63645005,0.78240955,0.49943015,0.5306281,0.42828798,0.34629026,0.24007343,0.43590704,0.610389,0.31617102,-0.18985121,-0.08271622,-0.09923525,809.4872,817.1429,852.1978,805.4579,865.4945,0.0,0.0,0.2904052734375,0.0643310546875,0.98028564453125,0.231781005859375,-26.36322021484375,-0.381317138671875,531062.2710622711,94583882.78388278,59400000.0,79.86944,1.0,1.0,1.0,1.0,1.0,20.0,,0 days 00:00:00
2023-11-09 13:36:32.705,1.1405445,1.0795795,1.4157095,0.96040064,0.7775288,0.4802438,0.77210647,0.63645005,0.78240955,0.49943015,0.5306281,0.42828798,0.34629026,0.24007343,0.43590704,0.610389,0.31617102,-0.18985121,-0.08271622,-0.09923525,795.78754,817.1429,845.7509,799.011,806.26373,0.0,0.0,0.2904052734375,0.0643310546875,0.98028564453125,0.231781005859375,-26.36322021484375,-0.381317138671875,531062.2710622711,94583882.78388278,59400000.0,79.86944,1.0,1.0,1.0,1.0,1.0,20.0,,0 days 00:00:00.001000
2023-11-09 13:36:32.705,1.1405445,1.0795795,1.4157095,0.96040064,0.7775288,0.4802438,0.77210647,0.63645005,0.78240955,0.49943015,0.5306281,0.42828798,0.34629026,0.24007343,0.43590704,0.610389,0.31617102,-0.18985121,-0.08271622,-0.09923525,796.1905,814.3223,842.52747,810.696,763.95605,0.0,0.0,0.2904052734375,0.0643310546875,0.98028564453125,0.231781005859375,-26.36322021484375,-0.381317138671875,531062.2710622711,94583882.78388278,59400000.0,79.86944,1.0,1.0,1.0,1.0,1.0,20.0,,0 days 00:00:00
2023-11-09 13:36:32.705,1.1405445,1.0795795,1.4157095,0.96040064,0.7775288,0.4802438,0.77210647,0.63645005,0.78240955,0.49943015,0.5306281,0.42828798,0.34629026,0.24007343,0.43590704,0.610389,0.31617102,-0.18985121,-0.08271622,-0.09923525,812.3077,814.7253,844.5421,819.9634,825.6044,0.0,0.0,0.2904052734375,0.0643310546875,0.98028564453125,0.231781005859375,-26.36322021484375,-0.381317138671875,531062.2710622711,94583882.78388278,59400000.0,79.86944,1.0,1.0,1.0,1.0,1.0,20.0,,0 days 00:00:00
2023-11-09 13:36:32.705,1.1405445,1.0795795,1.4157095,0.96040064,0.7775288,0.4802438,0.77210647,0.63645005,0.78240955,0.49943015,0.5306281,0.42828798,0.34629026,0.24007343,0.43590704,0.610389,0.31617102,-0.18985121,-0.08271622,-0.09923525,814.7253,816.7399,846.1539,821.1722,803.8461,0.0,0.0,0.2904052734375,0.0643310546875,0.98028564453125,0.231781005859375,-26.36322021484375,-0.381317138671875,531062.2710622711,94583882.78388278,59400000.0,79.86944,1.0,1.0,1.0,1.0,1.0,20.0,,0 days 00:00:00
2023-11-09 13:36:32.706,1.1405445,1.0795795,1.4157095,0.96040064,0.7775288,0.4802438,0.77210647,0.63645005,0.78240955,0.49943015,0.5306281,0.42828798,0.34629026,0.24007343,0.43590704,0.610389,0.31617102,-0.18985121,-0.08271622,-0.09923525,806.6667,813.1135,846.9597,814.7253,694.65204,0.0,0.0,0.2904052734375,0.0643310546875,0.98028564453125,0.231781005859375,-26.36322021484375,-0.381317138671875,531062.2710622711,94583882.78388278,59400000.0,79.86944,1.0,1.0,1.0,1.0,1.0,20.0,,0 days 00:00:00.001000
2023-11-09 13:36:32.706,1.1405445,1.0795795,1.4157095,0.96040064,0.7775288,0.4802438,0.77210647,0.63645005,0.78240955,0.49943015,0.5306281,0.42828798,0.34629026,0.24007343,0.43590704,0.610389,0.31617102,-0.18985121,-0.08271622,-0.09923525,812.3077,808.68134,841.7216,815.5311,822.7839,0.0,0.0,0.2904052734375,0.0643310546875,0.98028564453125,0.231781005859375,-26.36322021484375,-0.381317138671875,531062.2710622711,94583882.78388278,59400000.0,79.86944,1.0,1.0,1.0,1.0,1.0,20.0,,0 days 00:00:00
2023-11-09 13:36:32.706,1.1405445,1.0795795,1.4157095,0.96040064,0.7775288,0.4802438,0.77210647,0.63645005,0.78240955,0.49943015,0.5306281,0.42828798,0.34629026,0.24007343,0.43590704,0.610389,0.31617102,-0.18985121,-0.08271622,-0.09923525,799.011,804.2491,837.6923,819.15753,905.78754,0.0,0.0,0.2904052734375,0.0643310546875,0.98028564453125,0.231781005859375,-26.36322021484375,-0.381317138671875,531062.2710622711,94583882.78388278,59400000.0,79.86944,1.0,1.0,1.0,1.0,1.0,20.0,,0 days 00:00:00
2023-11-09 13:36:32.706,1.1405445,1.0795795,1.4157095,0.96040064,0.7775288,0.4802438,0.77210647,0.63645005,0.78240955,0.49943015,0.5306281,0.42828798,0.34629026,0.24007343,0.43590704,0.610389,0.31617102,-0.18985121,-0.08271622,-0.09923525,790.14655,808.68134,838.9011,813.5165,771.6117,0.0,0.0,0.2904052734375,0.0643310546875,0.98028564453125,0.231781005859375,-26.36322021484375,-0.381317138671875,531062.2710622711,94583882.78388278,59400000.0,79.86944,1.0,1.0,1.0,1.0,1.0,20.0,,0 days 00:00:00
2023-11-09 13:36:32.707,1.1405445,1.0840285,1.4157095,0.96040064,0.7775288,0.45009163,0.77210647,0.63645005,0.78240955,0.4095818,0.5306281,0.42828798,0.34629026,0.23768096,0.43590704,0.610389,0.31617102,-0.190888,-0.08271622,-0.09923525,791.75824,811.0989,842.9304,815.5311,752.674,0.0,0.0,0.2904052734375,0.0643310546875,0.98028564453125,0.231781005859375,-26.36322021484375,-0.381317138671875,531062.2710622711,94583882.78388278,59400000.0,79.86944,1.0,1.0,1.0,1.0,1.0,20.0,,0 days 00:00:00.001000
2023-11-09 13:36:32.746,1.1405445,1.0840285,1.4157095,0.96040064,0.7775288,0.45009163,0.77210647,0.63645005,0.78240955,0.4095818,0.5306281,0.42828798,0.34629026,0.23768096,0.43590704,0.610389,0.31617102,-0.190888,-0.08271622,-0.09923525,805.05493,802.6374,840.9158,814.7253,765.16486,0.0,0.0,0.32080078125,0.0465087890625,0.96380615234375,0.979461669921875,-6.841278076171875,1.016845703125,523003.663003663,94541978.02197802,59316190.47619048,79.86944,1.0,1.0,1.0,1.0,1.0,20.0,,0 days 00:00:00.039000
2023-11-09 13:36:32.747,1.1405445,1.0840285,1.4157095,0.96040064,0.7775288,0.45009163,0.77210647,0.63645005,0.78240955,0.4095818,0.5306281,0.42828798,0.34629026,0.23768096,0.43590704,0.610389,0.31617102,-0.190888,-0.08271622,-0.09923525,818.7546,801.4286,838.0952,824.7985,740.58606,0.0,0.0,0.32080078125,0.0465087890625,0.96380615234375,0.979461669921875,-6.841278076171875,1.016845703125,523003.663003663,94541978.02197802,59316190.47619048,79.86944,1.0,1.0,1.0,1.0,1.0,20.0,,0 days 00:00:00.001000
2023-11-09 13:36:32.747,1.1405445,1.0840285,1.4157095,0.96040064,0.7775288,0.45009163,0.77210647,0.63645005,0.78240955,0.4095818,0.5306281,0.42828798,0.34629026,0.23768096,0.43590704,0.610389,0.31617102,-0.190888,-0.08271622,-0.09923525,787.326,800.2198,834.4689,838.0952,680.54944,0.0,0.0,0.32080078125,0.0465087890625,0.96380615234375,0.979461669921875,-6.841278076171875,1.016845703125,523003.663003663,94541978.02197802,59316190.47619048,79.86944,1.0,1.0,1.0,1.0,1.0,20.0,,0 days 00:00:00
2023-11-09 13:36:32.748,1.1405445,1.0840285,1.4157095,0.96040064,0.7775288,0.45009163,0.77210647,0.63645005,0.78240955,0.4095818,0.5306281,0.42828798,0.34629026,0.23768096,0.43590704,0.610389,0.31617102,-0.190888,-0.08271622,-0.09923525,775.64105,800.6227,831.2454,826.4103,703.5165,0.0,0.0,0.32080078125,0.0465087890625,0.96380615234375,0.979461669921875,-6.841278076171875,1.016845703125,523003.663003663,94541978.02197802,59316190.47619048,79.86944,1.0,1.0,1.0,1.0,1.0,20.0,,0 days 00:00:00.001000
2023-11-09 13:36:32.749,1.1405445,1.0840285,1.4157095,0.96040064,0.7775288,0.45009163,0.77210647,0.63645005,0.78240955,0.4095818,0.5306281,0.42828798,0.34629026,0.23768096,0.43590704,0.610389,0.31617102,-0.190888,-0.08271622,-0.09923525,790.9524,800.6227,832.4542,818.7546,768.3883,0.0,0.0,0.32080078125,0.0465087890625,0.96380615234375,0.979461669921875,-6.841278076171875,1.016845703125,523003.663003663,94541978.02197802,59316190.47619048,79.86944,1.0,1.0,1.0,1.0,1.0,20.0,,0 days 00:00:00.001000
2023-11-09 13:36:32.749,1.1405445,1.0840285,1.4157095,0.96040064,0.7775288,0.45009163,0.77210647,0.63645005,0.78240955,0.4095818,0.5306281,0.42828798,0.34629026,0.23768096,0.43590704,0.610389,0.31617102,-0.190888,-0.08271622,-0.09923525,809.0842,797.8022,827.2161,821.978,751.4652,0.0,0.0,0.32080078125,0.0465087890625,0.96380615234375,0.979461669921875,-6.841278076171875,1.016845703125,523003.663003663,94541978.02197802,59316190.47619048,79.86944,1.0,1.0,1.0,1.0,1.0,20.0,,0 days 00:00:00
2023-11-09 13:36:32.750,1.1405445,1.0840285,1.4157095,0.96040064,0.7775288,0.45009163,0.77210647,0.63645005,0.78240955,0.4095818,0.5306281,0.42828798,0.34629026,0.23768096,0.43590704,0.610389,0.31617102,-0.190888,-0.08271622,-0.09923525,813.91943,798.60803,824.7985,833.663,790.54944,0.0,0.0,0.32080078125,0.0465087890625,0.96380615234375,0.979461669921875,-6.841278076171875,1.016845703125,523003.663003663,94541978.02197802,59316190.47619048,79.86944,1.0,1.0,1.0,1.0,1.0,20.0,,0 days 00:00:00.001000
2023-11-09 13:36:32.750,1.1405445,1.0840285,1.4157095,0.96040064,0.7775288,0.45009163,0.77210647,0.63645005,0.78240955,0.4095818,0.5306281,0.42828798,0.34629026,0.23768096,0.43590704,0.610389,0.31617102,-0.190888,-0.08271622,-0.09923525,801.4286,798.20514,826.8132,829.2308,830.0366,0.0,0.0,0.32080078125,0.0465087890625,0.96380615234375,0.979461669921875,-6.841278076171875,1.016845703125,523003.663003663,94541978.02197802,59316190.47619048,79.86944,1.0,1.0,1.0,1.0,1.0,20.0,,0 days 00:00:00
2023-11-09 13:36:32.751,1.1405445,1.0840285,1.4157095,0.96040064,0.7775288,0.45009163,0.77210647,0.63645005,0.78240955,0.4095818,0.5306281,0.42828798,0.34629026,0.23768096,0.43590704,0.610389,0.31617102,-0.190888,-0.08271622,-0.09923525,781.685,795.38464,831.6484,810.293,760.7326,0.0,0.0,0.32080078125,0.0465087890625,0.96380615234375,0.979461669921875,-6.841278076171875,1.016845703125,523003.663003663,94541978.02197802,59316190.47619048,79.86944,1.0,1.0,1.0,1.0,1.0,20.0,,0 days 00:00:00.001000
2023-11-09 13:36:32.751,1.1405445,1.0840285,1.4157095,0.96040064,0.7775288,0.45009163,0.77210647,0.63645005,0.78240955,0.4095818,0.5306281,0.42828798,0.34629026,0.23768096,0.43590704,0.610389,0.31617102,-0.190888,-0.08271622,-0.09923525,788.5348,796.5934,829.6337,809.0842,692.6374,0.0,0.0,0.32080078125,0.0465087890625,0.96380615234375,0.979461669921875,-6.841278076171875,1.016845703125,523003.663003663,94541978.02197802,59316190.47619048,79.86944,1.0,1.0,1.0,1.0,1.0,20.0,,0 days 00:00:00
2023-11-09 13:36:32.752,1.1405445,1.0840285,1.4157095,0.96040064,0.7775288,0.45009163,0.77210647,0.63645005,0.78240955,0.4095818,0.5306281,0.42828798,0.34629026,0.23768096,0.43590704,0.610389,0.31617102,-0.190888,-0.08271622,-0.09923525,796.1905,793.36993,826.0073,826.4103,731.31866,0.0,0.0,0.32080078125,0.0465087890625,0.96380615234375,0.979461669921875,-6.841278076171875,1.016845703125,523003.663003663,94541978.02197802,59316190.47619048,79.86944,1.0,1.0,1.0,1.0,1.0,20.0,,0 days 00:00:00.001000
2023-11-09 13:36:32.752,1.1405445,1.0840285,1.4157095,0.96040064,0.7775288,0.45009163,0.77210647,0.63645005,0.78240955,0.4095818,0.5306281,0.42828798,0.34629026,0.23768096,0.43590704,0.610389,0.31617102,-0.190888,-0.08271622,-0.09923525,795.38464,786.52014,825.6044,836.08057,847.76556,0.0,0.0,0.32080078125,0.0465087890625,0.96380615234375,0.979461669921875,-6.841278076171875,1.016845703125,523003.663003663,94541978.02197802,59316190.47619048,79.86944,1.0,1.0,1.0,1.0,1.0,20.0,,0 days 00:00:00
2023-11-09 13:36:32.788,1.1405445,1.0840285,1.4157095,0.96040064,0.7775288,0.45009163,0.77210647,0.63645005,0.78240955,0.4095818,0.5306281,0.42828798,0.34629026,0.23768096,0.43590704,0.610389,0.31617102,-0.190888,-0.08271622,-0.09923525,812.71063,788.93774,819.15753,828.022,1023.0403,0.0,0.0,0.32080078125,0.0465087890625,0.96380615234375,0.979461669921875,-6.841278076171875,1.016845703125,523003.663003663,94541978.02197802,59316190.47619048,79.86944,1.0,1.0,1.0,1.0,1.0,20.0,,0 days 00:00:00.036000
2023-11-09 13:36:32.788,1.1405445,1.0840285,1.4157095,0.96040064,0.7775288,0.45009163,0.77210647,0.63645005,0.78240955,0.4095818,0.5306281,0.42828798,0.34629026,0.23768096,0.43590704,0.610389,0.31617102,-0.190888,-0.08271622,-0.09923525,807.47253,799.81683,815.5311,805.05493,856.63007,0.0,0.0,0.32080078125,0.0465087890625,0.96380615234375,0.979461669921875,-6.841278076171875,1.016845703125,523003.663003663,94541978.02197802,59316190.47619048,79.86944,1.0,1.0,1.0,1.0,1.0,20.0,,0 days 00:00:00
2023-11-09 13:36:32.789,1.1405445,1.0840285,1.4157095,0.96040064,0.7775288,0.45009163,0.77210647,0.63645005,0.78240955,0.4095818,0.5306281,0.42828798,0.34629026,0.23768096,0.43590704,0.610389,0.31617102,-0.190888,-0.08271622,-0.09923525,806.26373,805.8608,819.5604,817.1429,750.2564,0.0,0.0,0.32080078125,0.0465087890625,0.96380615234375,0.979461669921875,-6.841278076171875,1.016845703125,523003.663003663,94541978.02197802,59316190.47619048,79.86944,1.0,1.0,1.0,1.0,1.0,20.0,,0 days 00:00:00.001000
2023-11-09 13:36:32.789,1.1405445,1.0840285,1.4157095,0.96040064,0.7775288,0.45009163,0.77210647,0.63645005,0.78240955,0.4095818,0.5306281,0.42828798,0.34629026,0.23768096,0.43590704,0.610389,0.31617102,-0.190888,-0.08271622,-0.09923525,813.1135,800.6227,822.381,830.4396,865.09155,0.0,0.0,0.32080078125,0.0465087890625,0.96380615234375,0.979461669921875,-6.841278076171875,1.016845703125,523003.663003663,94541978.02197802,59316190.47619048,79.86944,1.0,1.0,1.0,1.0,1.0,20.0,,0 days 00:00:00
2023-11-09 13:36:32.790,1.1405445,1.0840285,1.4157095,0.96040064,0.7775288,0.45009163,0.77210647,0.63645005,0.78240955,0.4095818,0.5306281,0.42828798,0.34629026,0.23768096,0.43590704,0.610389,0.31617102,-0.190888,-0.08271622,-0.09923525,817.9487,804.2491,820.7692,810.293,894.5055,0.0,0.0,0.32080078125,0.0465087890625,0.96380615234375,0.979461669921875,-6.841278076171875,1.016845703125,523003.663003663,94541978.02197802,59316190.47619048,79.86944,1.0,1.0,1.0,1.0,1.0,20.0,,0 days 00:00:00.001000
2023-11-09 13:36:32.790,1.1405445,1.0840285,1.4157095,0.96040064,0.7775288,0.45009163,0.77210647,0.63645005,0.78240955,0.4095818,0.5306281,0.42828798,0.34629026,0.23768096,0.43590704,0.610389,0.31617102,-0.190888,-0.08271622,-0.09923525,814.7253,808.68134,821.978,813.1135,811.9048,0.0,0.0,0.32080078125,0.0465087890625,0.96380615234375,0.979461669921875,-6.841278076171875,1.016845703125,523003.663003663,94541978.02197802,59316190.47619048,79.86944,1.0,1.0,1.0,1.0,1.0,20.0,,0 days 00:00:00
2023-11-09 13:36:32.791,1.1405445,1.0840285,1.4157095,0.96040064,0.7775288,0.45009163,0.77210647,0.63645005,0.78240955,0.4095818,0.5306281,0.42828798,0.34629026,0.23768096,0.43590704,0.610389,0.31617102,-0.190888,-0.08271622,-0.09923525,808.68134,805.8608,821.978,816.7399,713.9927,0.0,0.0,0.32080078125,0.0465087890625,0.96380615234375,0.979461669921875,-6.841278076171875,1.016845703125,523003.663003663,94541978.02197802,59316190.47619048,79.86944,1.0,1.0,1.0,1.0,1.0,20.0,,0 days 00:00:00.001000
2023-11-09 13:36:32.791,1.1405445,1.0840285,1.4157095,0.96040064,0.7775288,0.45009163,0.77210647,0.63645005,0.78240955,0.4095818,0.5306281,0.42828798,0.34629026,0.23768096,0.43590704,0.610389,0.31617102,-0.190888,-0.08271622,-0.09923525,830.0366,805.05493,819.15753,846.55676,888.0586,0.0,0.0,0.32080078125,0.0465087890625,0.96380615234375,0.979461669921875,-6.841278076171875,1.016845703125,523003.663003663,94541978.02197802,59316190.47619048,79.86944,1.0,1.0,1.0,1.0,1.0,20.0,,0 days 00:00:00
2023-11-09 13:36:32.792,1.1405445,1.0840285,1.4157095,0.96040064,0.7775288,0.45009163,0.77210647,0.63645005,0.78240955,0.4095818,0.5306281,0.42828798,0.34629026,0.23768096,0.43590704,0.610389,0.31617102,-0.190888,-0.08271622,-0.09923525,822.7839,804.2491,819.15753,848.5714,996.04395,0.0,0.0,0.32080078125,0.0465087890625,0.96380615234375,0.979461669921875,-6.841278076171875,1.016845703125,523003.663003663,94541978.02197802,59316190.47619048,79.86944,1.0,1.0,1.0,1.0,1.0,20.0,,0 days 00:00:00.001000
2023-11-09 13:36:32.793,1.1405445,1.0840285,1.4157095,0.96040064,0.7775288,0.45009163,0.77210647,0.63645005,0.78240955,0.4095818,0.5306281,0.42828798,0.34629026,0.23768096,0.43590704,0.610389,0.31617102,-0.190888,-0.08271622,-0.09923525,807.47253,804.2491,816.337,803.44324,735.7509,0.0,0.0,0.32080078125,0.0465087890625,0.96380615234375,0.979461669921875,-6.841278076171875,1.016845703125,523003.663003663,94541978.02197802,59316190.47619048,79.86944,1.0,1.0,1.0,1.0,1.0,20.0,,0 days 00:00:00.001000
2023-11-09 13:36:32.793,1.1405445,1.0840285,1.4157095,0.96040064,0.7775288,0.45009163,0.77210647,0.63645005,0.78240955,0.4095818,0.5306281,0.42828798,0.34629026,0.23768096,0.43590704,0.610389,0.31617102,-0.190888,-0.08271622,-0.09923525,828.022,804.2491,810.696,804.2491,653.5531,0.0,0.0,0.32080078125,0.0465087890625,0.96380615234375,0.979461669921875,-6.841278076171875,1.016845703125,523003.663003663,94541978.02197802,59316190.47619048,79.86944,1.0,1.0,1.0,1.0,1.0,20.0,,0 days 00:00:00
2023-11-09 13:36:32.794,1.1405445,1.0840285,1.4157095,0.96040064,0.7775288,0.45009163,0.77210647,0.63645005,0.78240955,0.4095818,0.5306281,0.42828798,0.34629026,0.23768096,0.43590704,0.610389,0.31617102,-0.190888,-0.08271622,-0.09923525,831.6484,801.8315,809.4872,825.6044,723.663,0.0,0.0,0.32080078125,0.0465087890625,0.96380615234375,0.979461669921875,-6.841278076171875,1.016845703125,523003.663003663,94541978.02197802,59316190.47619048,79.86944,1.0,1.0,1.0,1.0,1.0,20.0,,0 days 00:00:00.001000
2023-11-09 13:36:32.825,1.1405445,1.0840285,1.4157095,0.96040064,0.7775288,0.45009163,0.77210647,0.63645005,0.78240955,0.4095818,0.5306281,0.42828798,0.34629026,0.23768096,0.43590704,0.610389,0.31617102,-0.190888,-0.08271622,-0.09923525,817.5458,805.4579,814.3223,828.022,720.4396,0.0,0.0,0.29656982421875,0.039306640625,0.96319580078125,3.730926513671875,3.9178466796875,-0.11962890625,523809.5238095238,94499267.3992674,59249304.02930403,79.86944,1.0,1.0,1.0,1.0,1.0,20.0,,0 days 00:00:00.031000
2023-11-09 13:36:32.826,1.1405445,1.0751531,1.4157095,0.96040064,0.7775288,0.4260628,0.77210647,0.63645005,0.78240955,0.37647617,0.5306281,0.42828798,0.34629026,0.23746659,0.43590704,0.610389,0.31617102,-0.1935292,-0.08271622,-0.09923525,809.0842,811.9048,812.71063,811.50183,654.7619,0.0,0.0,0.29656982421875,0.039306640625,0.96319580078125,3.730926513671875,3.9178466796875,-0.11962890625,523809.5238095238,94499267.3992674,59249304.02930403,79.86944,1.0,1.0,1.0,1.0,1.0,20.0,,0 days 00:00:00.001000
2023-11-09 13:36:32.828,1.1405445,1.0751531,1.4157095,0.96040064,0.7775288,0.4260628,0.77210647,0.63645005,0.78240955,0.37647617,0.5306281,0.42828798,0.34629026,0.23746659,0.43590704,0.610389,0.31617102,-0.1935292,-0.08271622,-0.09923525,822.7839,805.8608,810.293,819.15753,699.89014,0.0,0.0,0.29656982421875,0.039306640625,0.96319580078125,3.730926513671875,3.9178466796875,-0.11962890625,523809.5238095238,94499267.3992674,59249304.02930403,79.86944,1.0,1.0,1.0,1.0,1.0,20.0,,0 days 00:00:00.002000
2023-11-09 13:36:32.829,1.1405445,1.0751531,1.4157095,0.96040064,0.7775288,0.4260628,0.77210647,0.63645005,0.78240955,0.37647617,0.5306281,0.42828798,0.34629026,0.23746659,0.43590704,0.610389,0.31617102,-0.1935292,-0.08271622,-0.09923525,835.2747,811.0989,812.3077,835.6777,816.7399,0.0,0.0,0.29656982421875,0.039306640625,0.96319580078125,3.730926513671875,3.9178466796875,-0.11962890625,523809.5238095238,94499267.3992674,59249304.02930403,79.86944,1.0,1.0,1.0,1.0,1.0,20.0,,0 days 00:00:00.001000
2023-11-09 13:36:32.829,1.1405445,1.0751531,1.4157095,0.96040064,0.7775288,0.4260628,0.77210647,0.63645005,0.78240955,0.37647617,0.5306281,0.42828798,0.34629026,0.23746659,0.43590704,0.610389,0.31617102,-0.1935292,-0.08271622,-0.09923525,827.619,819.15753,819.15753,827.2161,797.3993,0.0,0.0,0.29656982421875,0.039306640625,0.96319580078125,3.730926513671875,3.9178466796875,-0.11962890625,523809.5238095238,94499267.3992674,59249304.02930403,79.86944,1.0,1.0,1.0,1.0,1.0,20.0,,0 days 00:00:00
2023-11-09 13:36:32.830,1.1405445,1.0751531,1.4157095,0.96040064,0.7775288,0.4260628,0.77210647,0.63645005,0.78240955,0.37647617,0.5306281,0.42828798,0.34629026,0.23746659,0.43590704,0.610389,0.31617102,-0.1935292,-0.08271622,-0.09923525,823.1868,815.12823,822.381,811.50183,770.0,0.0,0.0,0.29656982421875,0.039306640625,0.96319580078125,3.730926513671875,3.9178466796875,-0.11962890625,523809.5238095238,94499267.3992674,59249304.02930403,79.86944,1.0,1.0,1.0,1.0,1.0,20.0,,0 days 00:00:00.001000
2023-11-09 13:36:32.831,1.1405445,1.0751531,1.4157095,0.96040064,0.7775288,0.4260628,0.77210647,0.63645005,0.78240955,0.37647617,0.5306281,0.42828798,0.34629026,0.23746659,0.43590704,0.610389,0.31617102,-0.1935292,-0.08271622,-0.09923525,826.4103,812.71063,818.7546,826.0073,877.5824,0.0,0.0,0.29656982421875,0.039306640625,0.96319580078125,3.730926513671875,3.9178466796875,-0.11962890625,523809.5238095238,94499267.3992674,59249304.02930403,79.86944,1.0,1.0,1.0,1.0,1.0,20.0,,0 days 00:00:00.001000
2023-11-09 13:36:32.831,1.1405445,1.0751531,1.4157095,0.96040064,0.7775288,0.4260628,0.77210647,0.63645005,0.78240955,0.37647617,0.5306281,0.42828798,0.34629026,0.23746659,0.43590704,0.610389,0.31617102,-0.1935292,-0.08271622,-0.09923525,829.6337,808.68134,823.1868,841.7216,1051.2454,0.0,0.0,0.29656982421875,0.039306640625,0.96319580078125,3.730926513671875,3.9178466796875,-0.11962890625,523809.5238095238,94499267.3992674,59249304.02930403,79.86944,1.0,1.0,1.0,1.0,1.0,20.0,,0 days 00:00:00
2023-11-09 13:36:32.832,1.1405445,1.0751531,1.4157095,0.96040064,0.7775288,0.4260628,0.77210647,0.63645005,0.78240955,0.37647617,0.5306281,0.42828798,0.34629026,0.23746659,0.43590704,0.610389,0.31617102,-0.1935292,-0.08271622,-0.09923525,826.4103,810.293,819.5604,833.663,925.12823,0.0,0.0,0.29656982421875,0.039306640625,0.96319580078125,3.730926513671875,3.9178466796875,-0.11962890625,523809.5238095238,94499267.3992674,59249304.02930403,79.86944,1.0,1.0,1.0,1.0,1.0,20.0,,0 days 00:00:00.001000
2023-11-09 13:36:32.832,1.1405445,1.0751531,1.4157095,0.96040064,0.7775288,0.4260628,0.77210647,0.63645005,0.78240955,0.37647617,0.5306281,0.42828798,0.34629026,0.23746659,0.43590704,0.610389,0.31617102,-0.1935292,-0.08271622,-0.09923525,834.87177,817.5458,818.7546,811.9048,736.55676,0.0,0.0,0.29656982421875,0.039306640625,0.96319580078125,3.730926513671875,3.9178466796875,-0.11962890625,523809.5238095238,94499267.3992674,59249304.02930403,79.86944,1.0,1.0,1.0,1.0,1.0,20.0,,0 days 00:00:00
2023-11-09 13:36:32.833,1.1405445,1.0751531,1.4157095,0.96040064,0.7775288,0.4260628,0.77210647,0.63645005,0.78240955,0.37647617,0.5306281,0.42828798,0.34629026,0.23746659,0.43590704,0.610389,0.31617102,-0.1935292,-0.08271622,-0.09923525,833.663,817.5458,820.3663,817.5458,842.52747,0.0,0.0,0.29656982421875,0.039306640625,0.96319580078125,3.730926513671875,3.9178466796875,-0.11962890625,523809.5238095238,94499267.3992674,59249304.02930403,79.86944,1.0,1.0,1.0,1.0,1.0,20.0,,0 days 00:00:00.001000
2023-11-09 13:36:32.833,1.1405445,1.0751531,1.4157095,0.96040064,0.7775288,0.4260628,0.77210647,0.63645005,0.78240955,0.37647617,0.5306281,0.42828798,0.34629026,0.23746659,0.43590704,0.610389,0.31617102,-0.1935292,-0.08271622,-0.09923525,831.6484,812.71063,817.1429,831.2454,913.44324,0.0,0.0,0.29656982421875,0.039306640625,0.96319580078125,3.730926513671875,3.9178466796875,-0.11962890625,523809.5238095238,94499267.3992674,59249304.02930403,79.86944,1.0,1.0,1.0,1.0,1.0,20.0,,0 days 00:00:00
2023-11-09 13:36:32.855,1.1405445,1.0751531,1.4157095,0.96040064,0.7775288,0.4260628,0.77210647,0.63645005,0.78240955,0.37647617,0.5306281,0.42828798,0.34629026,0.23746659,0.43590704,0.610389,0.31617102,-0.1935292,-0.08271622,-0.09923525,827.2161,813.1135,818.7546,827.2161,734.5421,0.0,0.0,0.27581787109375,0.0496826171875,0.96966552734375,4.239349365234375,6.998291015625,-0.43365478515625,523809.5238095238,94499267.3992674,59249304.02930403,79.86944,1.0,1.0,1.0,1.0,1.0,20.0,,0 days 00:00:00.022000
2023-11-09 13:36:32.856,1.1405445,1.0751531,1.4157095,0.96040064,0.7775288,0.4260628,0.77210647,0.63645005,0.78240955,0.37647617,0.5306281,0.42828798,0.34629026,0.23746659,0.43590704,0.610389,0.31617102,-0.1935292,-0.08271622,-0.09923525,820.7692,815.9341,816.337,825.2015,683.7729,0.0,0.0,0.27581787109375,0.0496826171875,0.96966552734375,4.239349365234375,6.998291015625,-0.43365478515625,523809.5238095238,94499267.3992674,59249304.02930403,79.86944,1.0,1.0,1.0,1.0,1.0,20.0,,0 days 00:00:00.001000
2023-11-09 13:36:32.856,1.1405445,1.0751531,1.4157095,0.96040064,0.7775288,0.4260628,0.77210647,0.63645005,0.78240955,0.37647617,0.5306281,0.42828798,0.34629026,0.23746659,0.43590704,0.610389,0.31617102,-0.1935292,-0.08271622,-0.09923525,821.978,817.1429,814.7253,813.91943,709.9634,0.0,0.0,0.27581787109375,0.0496826171875,0.96966552734375,4.239349365234375,6.998291015625,-0.43365478515625,523809.5238095238,94499267.3992674,59249304.02930403,79.86944,1.0,1.0,1.0,1.0,1.0,20.0,,0 days 00:00:00
2023-11-09 13:36:32.857,1.1405445,1.0751531,1.4157095,0.96040064,0.7775288,0.4260628,0.77210647,0.63645005,0.78240955,0.37647617,0.5306281,0.42828798,0.34629026,0.23746659,0.43590704,0.610389,0.31617102,-0.1935292,-0.08271622,-0.09923525,828.8278,813.91943,820.3663,817.5458,682.5641,0.0,0.0,0.27581787109375,0.0496826171875,0.96966552734375,4.239349365234375,6.998291015625,-0.43365478515625,523809.5238095238,94499267.3992674,59249304.02930403,79.86944,1.0,1.0,1.0,1.0,1.0,20.0,,0 days 00:00:00.001000
2023-11-09 13:36:32.857,1.1405445,1.0751531,1.4157095,0.96040064,0.7775288,0.4260628,0.77210647,0.63645005,0.78240955,0.37647617,0.5306281,0.42828798,0.34629026,0.23746659,0.43590704,0.610389,0.31617102,-0.1935292,-0.08271622,-0.09923525,839.304,809.4872,817.9487,839.304,697.8755,0.0,0.0,0.27581787109375,0.0496826171875,0.96966552734375,4.239349365234375,6.998291015625,-0.43365478515625,523809.5238095238,94499267.3992674,59249304.02930403,79.86944,1.0,1.0,1.0,1.0,1.0,20.0,,0 days 00:00:00
2023-11-09 13:36:32.857,1.1405445,1.0751531,1.4157095,0.96040064,0.7775288,0.4260628,0.77210647,0.63645005,0.78240955,0.37647617,0.5306281,0.42828798,0.34629026,0.23746659,0.43590704,0.610389,0.31617102,-0.1935292,-0.08271622,-0.09923525,836.8865,812.3077,814.7253,834.4689,767.5824,0.0,0.0,0.27581787109375,0.0496826171875,0.96966552734375,4.239349365234375,6.998291015625,-0.43365478515625,523809.5238095238,94499267.3992674,59249304.02930403,79.86944,1.0,1.0,1.0,1.0,1.0,20.0,,0 days 00:00:00
2023-11-09 13:36:32.858,1.1405445,1.0751531,1.4157095,0.96040064,0.7775288,0.4260628,0.77210647,0.63645005,0.78240955,0.37647617,0.5306281,0.42828798,0.34629026,0.23746659,0.43590704,0.610389,0.31617102,-0.1935292,-0.08271622,-0.09923525,826.0073,813.91943,817.5458,829.6337,957.76556,0.0,0.0,0.27581787109375,0.0496826171875,0.96966552734375,4.239349365234375,6.998291015625,-0.43365478515625,523809.5238095238,94499267.3992674,59249304.02930403,79.86944,1.0,1.0,1.0,1.0,1.0,20.0,,0 days 00:00:00.001000
2023-11-09 13:36:32.858,1.1405445,1.0751531,1.4157095,0.96040064,0.7775288,0.4260628,0.77210647,0.63645005,0.78240955,0.37647617,0.5306281,0.42828798,0.34629026,0.23746659,0.43590704,0.610389,0.31617102,-0.1935292,-0.08271622,-0.09923525,817.9487,814.7253,816.337,822.7839,928.7546,0.0,0.0,0.27581787109375,0.0496826171875,0.96966552734375,4.239349365234375,6.998291015625,-0.43365478515625,523809.5238095238,94499267.3992674,59249304.02930403,79.86944,1.0,1.0,1.0,1.0,1.0,20.0,,0 days 00:00:00
2023-11-09 13:36:32.858,1.1405445,1.0751531,1.4157095,0.96040064,0.7775288,0.4260628,0.77210647,0.63645005,0.78240955,0.37647617,0.5306281,0.42828798,0.34629026,0.23746659,0.43590704,0.610389,0.31617102,-0.1935292,-0.08271622,-0.09923525,828.8278,821.5751,815.5311,829.2308,754.2857,0.0,0.0,0.27581787109375,0.0496826171875,0.96966552734375,4.239349365234375,6.998291015625,-0.43365478515625,523809.5238095238,94499267.3992674,59249304.02930403,79.86944,1.0,1.0,1.0,1.0,1.0,20.0,,0 days 00:00:00
2023-11-09 13:36:32.859,1.1405445,1.0751531,1.4157095,0.96040064,0.7775288,0.4260628,0.77210647,0.63645005,0.78240955,0.37647617,0.5306281,0.42828798,0.34629026,0.23746659,0.43590704,0.610389,0.31617102,-0.1935292,-0.08271622,-0.09923525,842.52747,821.5751,818.3516,849.7802,763.1502,0.0,0.0,0.27581787109375,0.0496826171875,0.96966552734375,4.239349365234375,6.998291015625,-0.43365478515625,523809.5238095238,94499267.3992674,59249304.02930403,79.86944,1.0,1.0,1.0,1.0,1.0,20.0,,0 days 00:00:00.001000
2023-11-09 13:36:32.859,1.1405445,1.0751531,1.4157095,0.96040064,0.7775288,0.4260628,0.77210647,0.63645005,0.78240955,0.37647617,0.5306281,0.42828798,0.34629026,0.23746659,0.43590704,0.610389,0.31617102,-0.1935292,-0.08271622,-0.09923525,836.8865,817.1429,817.9487,836.8865,947.6923,0.0,0.0,0.27581787109375,0.0496826171875,0.96966552734375,4.239349365234375,6.998291015625,-0.43365478515625,523809.5238095238,94499267.3992674,59249304.02930403,79.86944,1.0,1.0,1.0,1.0,1.0,20.0,,0 days 00:00:00
2023-11-09 13:36:32.859,1.1405445,1.0751531,1.4157095,0.96040064,0.7775288,0.4260628,0.77210647,0.63645005,0.78240955,0.37647617,0.5306281,0.42828798,0.34629026,0.23746659,0.43590704,0.610389,0.31617102,-0.1935292,-0.08271622,-0.09923525,834.4689,816.7399,809.4872,820.7692,943.663,0.0,0.0,0.27581787109375,0.0496826171875,0.96966552734375,4.239349365234375,6.998291015625,-0.43365478515625,523809.5238095238,94499267.3992674,59249304.02930403,79.86944,1.0,1.0,1.0,1.0,1.0,20.0,,0 days 00:00:00
2023-11-09 13:36:32.924,1.1405445,1.0751531,1.4157095,0.96040064,0.7775288,0.4260628,0.77210647,0.63645005,0.78240955,0.37647617,0.5306281,0.42828798,0.34629026,0.23746659,0.43590704,0.610389,0.31617102,-0.1935292,-0.08271622,-0.09923525,834.87177,820.7692,807.0696,829.6337,718.022,0.0,0.0,0.23931884765625,0.05364990234375,0.96160888671875,4.56085205078125,9.8095703125,0.919647216796875,527838.8278388279,94529890.1098901,59271062.27106227,79.86944,1.0,1.0,1.0,1.0,1.0,20.0,,0 days 00:00:00.065000
2023-11-09 13:36:32.925,1.1405445,1.0751531,1.4157095,0.96040064,0.7775288,0.4260628,0.77210647,0.63645005,0.78240955,0.37647617,0.5306281,0.42828798,0.34629026,0.23746659,0.43590704,0.610389,0.31617102,-0.1935292,-0.08271622,-0.09923525,831.6484,820.7692,815.12823,852.6007,774.43225,0.0,0.0,0.23931884765625,0.05364990234375,0.96160888671875,4.56085205078125,9.8095703125,0.919647216796875,527838.8278388279,94529890.1098901,59271062.27106227,79.86944,1.0,1.0,1.0,1.0,1.0,20.0,,0 days 00:00:00.001000
2023-11-09 13:36:32.926,1.1405445,1.0751531,1.4157095,0.96040064,0.7775288,0.4260628,0.77210647,0.63645005,0.78240955,0.37647617,0.5306281,0.42828798,0.34629026,0.23746659,0.43590704,0.610389,0.31617102,-0.1935292,-0.08271622,-0.09923525,828.022,816.337,816.337,842.1245,780.07324,0.0,0.0,0.23931884765625,0.05364990234375,0.96160888671875,4.56085205078125,9.8095703125,0.919647216796875,527838.8278388279,94529890.1098901,59271062.27106227,79.86944,1.0,1.0,1.0,1.0,1.0,20.0,,0 days 00:00:00.001000
2023-11-09 13:36:32.926,1.1405445,1.0511795,1.4157095,0.96040064,0.7775288,0.41286394,0.77210647,0.63645005,0.78240955,0.3754156,0.5306281,0.42828798,0.34629026,0.23333672,0.43590704,0.610389,0.31617102,-0.19969042,-0.08271622,-0.09923525,822.7839,817.9487,811.0989,824.7985,725.6777,0.0,0.0,0.23931884765625,0.05364990234375,0.96160888671875,4.56085205078125,9.8095703125,0.919647216796875,527838.8278388279,94529890.1098901,59271062.27106227,79.86944,1.0,1.0,1.0,1.0,1.0,20.0,,0 days 00:00:00
2023-11-09 13:36:32.928,1.1405445,1.0511795,1.4157095,0.96040064,0.7775288,0.41286394,0.77210647,0.63645005,0.78240955,0.3754156,0.5306281,0.42828798,0.34629026,0.23333672,0.43590704,0.610389,0.31617102,-0.19969042,-0.08271622,-0.09923525,827.2161,816.7399,813.5165,837.6923,684.17584,0.0,0.0,0.23931884765625,0.05364990234375,0.96160888671875,4.56085205078125,9.8095703125,0.919647216796875,527838.8278388279,94529890.1098901,59271062.27106227,79.86944,1.0,1.0,1.0,1.0,1.0,20.0,,0 days 00:00:00.002000
2023-11-09 13:36:32.929,1.1405445,1.0511795,1.4157095,0.96040064,0.7775288,0.41286394,0.77210647,0.63645005,0.78240955,0.3754156,0.5306281,0.42828798,0.34629026,0.23333672,0.43590704,0.610389,0.31617102,-0.19969042,-0.08271622,-0.09923525,847.76556,815.12823,816.7399,865.89746,873.1502,0.0,0.0,0.23931884765625,0.05364990234375,0.96160888671875,4.56085205078125,9.8095703125,0.919647216796875,527838.8278388279,94529890.1098901,59271062.27106227,79.86944,1.0,1.0,1.0,1.0,1.0,20.0,,0 days 00:00:00.001000
2023-11-09 13:36:32.929,1.1405445,1.0511795,1.4157095,0.96040064,0.7775288,0.41286394,0.77210647,0.63645005,0.78240955,0.3754156,0.5306281,0.42828798,0.34629026,0.23333672,0.43590704,0.610389,0.31617102,-0.19969042,-0.08271622,-0.09923525,853.4066,821.5751,817.1429,855.82416,1091.1355,0.0,0.0,0.23931884765625,0.05364990234375,0.96160888671875,4.56085205078125,9.8095703125,0.919647216796875,527838.8278388279,94529890.1098901,59271062.27106227,79.86944,1.0,1.0,1.0,1.0,1.0,20.0,,0 days 00:00:00
2023-11-09 13:36:32.929,1.1405445,1.0511795,1.4157095,0.96040064,0.7775288,0.41286394,0.77210647,0.63645005,0.78240955,0.3754156,0.5306281,0.42828798,0.34629026,0.23333672,0.43590704,0.610389,0.31617102,-0.19969042,-0.08271622,-0.09923525,835.6777,820.3663,816.337,831.2454,888.0586,0.0,0.0,0.23931884765625,0.05364990234375,0.96160888671875,4.56085205078125,9.8095703125,0.919647216796875,527838.8278388279,94529890.1098901,59271062.27106227,79.86944,1.0,1.0,1.0,1.0,1.0,20.0,,0 days 00:00:00
2023-11-09 13:36:32.930,1.1405445,1.0511795,1.4157095,0.96040064,0.7775288,0.41286394,0.77210647,0.63645005,0.78240955,0.3754156,0.5306281,0.42828798,0.34629026,0.23333672,0.43590704,0.610389,0.31617102,-0.19969042,-0.08271622,-0.09923525,839.707,819.15753,815.5311,836.8865,687.8022,0.0,0.0,0.23931884765625,0.05364990234375,0.96160888671875,4.56085205078125,9.8095703125,0.919647216796875,527838.8278388279,94529890.1098901,59271062.27106227,79.86944,1.0,1.0,1.0,1.0,1.0,20.0,,0 days 00:00:00.001000
2023-11-09 13:36:32.930,1.1405445,1.0511795,1.4157095,0.96040064,0.7775288,0.41286394,0.77210647,0.63645005,0.78240955,0.3754156,0.5306281,0.42828798,0.34629026,0.23333672,0.43590704,0.610389,0.31617102,-0.19969042,-0.08271622,-0.09923525,863.0769,820.3663,820.3663,859.85345,804.2491,0.0,0.0,0.23931884765625,0.05364990234375,0.96160888671875,4.56085205078125,9.8095703125,0.919647216796875,527838.8278388279,94529890.1098901,59271062.27106227,79.86944,1.0,1.0,1.0,1.0,1.0,20.0,,0 days 00:00:00
2023-11-09 13:36:32.931,1.1405445,1.0511795,1.4157095,0.96040064,0.7775288,0.41286394,0.77210647,0.63645005,0.78240955,0.3754156,0.5306281,0.42828798,0.34629026,0.23333672,0.43590704,0.610389,0.31617102,-0.19969042,-0.08271622,-0.09923525,849.7802,814.3223,825.2015,873.1502,949.304,0.0,0.0,0.23931884765625,0.05364990234375,0.96160888671875,4.56085205078125,9.8095703125,0.919647216796875,527838.8278388279,94529890.1098901,59271062.27106227,79.86944,1.0,1.0,1.0,1.0,1.0,20.0,,0 days 00:00:00.001000
2023-11-09 13:36:32.931,1.1405445,1.0511795,1.4157095,0.96040064,0.7775288,0.41286394,0.77210647,0.63645005,0.78240955,0.3754156,0.5306281,0.42828798,0.34629026,0.23333672,0.43590704,0.610389,0.31617102,-0.19969042,-0.08271622,-0.09923525,821.1722,816.337,823.9927,848.1685,745.42126,0.0,0.0,0.23931884765625,0.05364990234375,0.96160888671875,4.56085205078125,9.8095703125,0.919647216796875,527838.8278388279,94529890.1098901,59271062.27106227,79.86944,1.0,1.0,1.0,1.0,1.0,20.0,,0 days 00:00:00
2023-11-09 13:36:32.962,1.1405445,1.0511795,1.4157095,0.96040064,0.7775288,0.41286394,0.77210647,0.63645005,0.78240955,0.3754156,0.5306281,0.42828798,0.34629026,0.23333672,0.43590704,0.610389,0.31617102,-0.19969042,-0.08271622,-0.09923525,832.4542,819.5604,822.381,836.4835,618.9011,0.0,0.0,0.20751953125,0.0526123046875,0.96124267578125,4.05242919921875,6.6094970703125,1.136474609375,527838.8278388279,94529890.1098901,59271062.27106227,79.86944,1.0,1.0,1.0,1.0,1.0,20.0,,0 days 00:00:00.031000
2023-11-09 13:36:32.963,1.1405445,1.0511795,1.4157095,0.96040064,0.7775288,0.41286394,0.77210647,0.63645005,0.78240955,0.3754156,0.5306281,0.42828798,0.34629026,0.23333672,0.43590704,0.610389,0.31617102,-0.19969042,-0.08271622,-0.09923525,839.707,819.15753,819.5604,853.8095,767.5824,0.0,0.0,0.20751953125,0.0526123046875,0.96124267578125,4.05242919921875,6.6094970703125,1.136474609375,527838.8278388279,94529890.1098901,59271062.27106227,79.86944,1.0,1.0,1.0,1.0,1.0,20.0,,0 days 00:00:00.001000
2023-11-09 13:36:32.964,1.1405445,1.0511795,1.4157095,0.96040064,0.7775288,0.41286394,0.77210647,0.63645005,0.78240955,0.3754156,0.5306281,0.42828798,0.34629026,0.23333672,0.43590704,0.610389,0.31617102,-0.19969042,-0.08271622,-0.09923525,840.10986,819.5604,820.3663,854.21246,820.7692,0.0,0.0,0.20751953125,0.0526123046875,0.96124267578125,4.05242919921875,6.6094970703125,1.136474609375,527838.8278388279,94529890.1098901,59271062.27106227,79.86944,1.0,1.0,1.0,1.0,1.0,20.0,,0 days 00:00:00.001000
2023-11-09 13:36:32.964,1.1405445,1.0511795,1.4157095,0.96040064,0.7775288,0.41286394,0.77210647,0.63645005,0.78240955,0.3754156,0.5306281,0.42828798,0.34629026,0.23333672,0.43590704,0.610389,0.31617102,-0.19969042,-0.08271622,-0.09923525,851.79486,820.7692,821.5751,837.28937,690.2198,0.0,0.0,0.20751953125,0.0526123046875,0.96124267578125,4.05242919921875,6.6094970703125,1.136474609375,527838.8278388279,94529890.1098901,59271062.27106227,79.86944,1.0,1.0,1.0,1.0,1.0,20.0,,0 days 00:00:00
2023-11-09 13:36:32.965,1.1405445,1.0511795,1.4157095,0.96040064,0.7775288,0.41286394,0.77210647,0.63645005,0.78240955,0.3754156,0.5306281,0.42828798,0.34629026,0.23333672,0.43590704,0.610389,0.31617102,-0.19969042,-0.08271622,-0.09923525,848.1685,820.3663,821.1722,840.10986,653.5531,0.0,0.0,0.20751953125,0.0526123046875,0.96124267578125,4.05242919921875,6.6094970703125,1.136474609375,527838.8278388279,94529890.1098901,59271062.27106227,79.86944,1.0,1.0,1.0,1.0,1.0,20.0,,0 days 00:00:00.001000
2023-11-09 13:36:32.965,1.1405445,1.0511795,1.4157095,0.96040064,0.7775288,0.41286394,0.77210647,0.63645005,0.78240955,0.3754156,0.5306281,0.42828798,0.34629026,0.23333672,0.43590704,0.610389,0.31617102,-0.19969042,-0.08271622,-0.09923525,849.7802,815.5311,816.7399,864.68866,850.989,0.0,0.0,0.20751953125,0.0526123046875,0.96124267578125,4.05242919921875,6.6094970703125,1.136474609375,527838.8278388279,94529890.1098901,59271062.27106227,79.86944,1.0,1.0,1.0,1.0,1.0,20.0,,0 days 00:00:00
2023-11-09 13:36:32.966,1.1405445,1.0511795,1.4157095,0.96040064,0.7775288,0.41286394,0.77210647,0.63645005,0.78240955,0.3754156,0.5306281,0.42828798,0.34629026,0.23333672,0.43590704,0.610389,0.31617102,-0.19969042,-0.08271622,-0.09923525,850.18317,816.7399,814.3223,876.77655,881.2088,0.0,0.0,0.20751953125,0.0526123046875,0.96124267578125,4.05242919921875,6.6094970703125,1.136474609375,527838.8278388279,94529890.1098901,59271062.27106227,79.86944,1.0,1.0,1.0,1.0,1.0,20.0,,0 days 00:00:00.001000
2023-11-09 13:36:32.966,1.1405445,1.0511795,1.4157095,0.96040064,0.7775288,0.41286394,0.77210647,0.63645005,0.78240955,0.3754156,0.5306281,0.42828798,0.34629026,0.23333672,0.43590704,0.610389,0.31617102,-0.19969042,-0.08271622,-0.09923525,834.87177,817.1429,813.5165,855.42126,706.337,0.0,0.0,0.20751953125,0.0526123046875,0.96124267578125,4.05242919921875,6.6094970703125,1.136474609375,527838.8278388279,94529890.1098901,59271062.27106227,79.86944,1.0,1.0,1.0,1.0,1.0,20.0,,0 days 00:00:00
2023-11-09 13:36:32.967,1.1405445,1.0511795,1.4157095,0.96040064,0.7775288,0.41286394,0.77210647,0.63645005,0.78240955,0.3754156,0.5306281,0.42828798,0.34629026,0.23333672,0.43590704,0.610389,0.31617102,-0.19969042,-0.08271622,-0.09923525,834.0659,813.5165,813.5165,833.663,678.93774,0.0,0.0,0.20751953125,0.0526123046875,0.96124267578125,4.05242919921875,6.6094970703125,1.136474609375,527838.8278388279,94529890.1098901,59271062.27106227,79.86944,1.0,1.0,1.0,1.0,1.0,20.0,,0 days 00:00:00.001000
2023-11-09 13:36:32.967,1.1405445,1.0511795,1.4157095,0.96040064,0.7775288,0.41286394,0.77210647,0.63645005,0.78240955,0.3754156,0.5306281,0.42828798,0.34629026,0.23333672,0.43590704,0.610389,0.31617102,-0.19969042,-0.08271622,-0.09923525,840.5128,813.1135,811.9048,843.73627,800.6227,0.0,0.0,0.20751953125,0.0526123046875,0.96124267578125,4.05242919921875,6.6094970703125,1.136474609375,527838.8278388279,94529890.1098901,59271062.27106227,79.86944,1.0,1.0,1.0,1.0,1.0,20.0,,0 days 00:00:00
2023-11-09 13:36:32.968,1.1405445,1.0511795,1.4157095,0.96040064,0.7775288,0.41286394,0.77210647,0.63645005,0.78240955,0.3754156,0.5306281,0.42828798,0.34629026,0.23333672,0.43590704,0.610389,0.31617102,-0.19969042,-0.08271622,-0.09923525,856.63007,814.3223,809.4872,863.0769,820.7692,0.0,0.0,0.20751953125,0.0526123046875,0.96124267578125,4.05242919921875,6.6094970703125,1.136474609375,527838.8278388279,94529890.1098901,59271062.27106227,79.86944,1.0,1.0,1.0,1.0,1.0,20.0,,0 days 00:00:00.001000
2023-11-09 13:36:32.968,1.1405445,1.0511795,1.4157095,0.96040064,0.7775288,0.41286394,0.77210647,0.63645005,0.78240955,0.3754156,0.5306281,0.42828798,0.34629026,0.23333672,0.43590704,0.610389,0.31617102,-0.19969042,-0.08271622,-0.09923525,856.63007,817.1429,811.0989,857.03296,718.022,0.0,0.0,0.20751953125,0.0526123046875,0.96124267578125,4.05242919921875,6.6094970703125,1.136474609375,527838.8278388279,94529890.1098901,59271062.27106227,79.86944,1.0,1.0,1.0,1.0,1.0,20.0,,0 days 00:00:00
2023-11-09 13:36:33.041,1.1405445,1.0511795,1.4157095,0.96040064,0.7775288,0.41286394,0.77210647,0.63645005,0.78240955,0.3754156,0.5306281,0.42828798,0.34629026,0.23333672,0.43590704,0.610389,0.31617102,-0.19969042,-0.08271622,-0.09923525,837.6923,817.9487,809.89014,853.00366,698.2784,0.0,0.0,0.20751953125,0.0526123046875,0.96124267578125,4.05242919921875,6.6094970703125,1.136474609375,534285.7142857143,94633040.29304028,59340366.3003663,79.86944,1.0,1.0,1.0,1.0,1.0,20.0,,0 days 00:00:00.073000
2023-11-09 13:36:33.042,1.1405445,1.0511795,1.4157095,0.96040064,0.7775288,0.41286394,0.77210647,0.63645005,0.78240955,0.3754156,0.5306281,0.42828798,0.34629026,0.23333672,0.43590704,0.610389,0.31617102,-0.19969042,-0.08271622,-0.09923525,832.0513,815.9341,812.71063,845.7509,799.81683,0.0,0.0,0.20751953125,0.0526123046875,0.96124267578125,4.05242919921875,6.6094970703125,1.136474609375,534285.7142857143,94633040.29304028,59340366.3003663,79.86944,1.0,1.0,1.0,1.0,1.0,20.0,,0 days 00:00:00.001000
2023-11-09 13:36:33.042,1.1405445,1.0511795,1.4157095,0.96040064,0.7775288,0.41286394,0.77210647,0.63645005,0.78240955,0.3754156,0.5306281,0.42828798,0.34629026,0.23333672,0.43590704,0.610389,0.31617102,-0.19969042,-0.08271622,-0.09923525,840.5128,817.1429,812.71063,846.9597,830.0366,0.0,0.0,0.20751953125,0.0526123046875,0.96124267578125,4.05242919921875,6.6094970703125,1.136474609375,534285.7142857143,94633040.29304028,59340366.3003663,79.86944,1.0,1.0,1.0,1.0,1.0,20.0,,0 days 00:00:00
2023-11-09 13:36:33.043,1.1405445,1.0511795,1.4157095,0.96040064,0.7775288,0.41286394,0.77210647,0.63645005,0.78240955,0.3754156,0.5306281,0.42828798,0.34629026,0.23333672,0.43590704,0.610389,0.31617102,-0.19969042,-0.08271622,-0.09923525,846.55676,817.1429,808.68134,856.2271,740.58606,0.0,0.0,0.20751953125,0.0526123046875,0.96124267578125,4.05242919921875,6.6094970703125,1.136474609375,534285.7142857143,94633040.29304028,59340366.3003663,79.86944,1.0,1.0,1.0,1.0,1.0,20.0,,0 days 00:00:00.001000
2023-11-09 13:36:33.044,1.1405445,1.0511795,1.4157095,0.96040064,0.7775288,0.41286394,0.77210647,0.63645005,0.78240955,0.3754156,0.5306281,0.42828798,0.34629026,0.23333672,0.43590704,0.610389,0.31617102,-0.19969042,-0.08271622,-0.09923525,838.9011,817.9487,811.0989,842.1245,856.63007,0.0,0.0,0.20751953125,0.0526123046875,0.96124267578125,4.05242919921875,6.6094970703125,1.136474609375,534285.7142857143,94633040.29304028,59340366.3003663,79.86944,1.0,1.0,1.0,1.0,1.0,20.0,,0 days 00:00:00.001000
2023-11-09 13:36:33.044,1.1405445,1.0211408,1.4157095,0.96040064,0.7775288,0.41103223,0.77210647,0.63645005,0.78240955,0.3759594,0.5306281,0.42828798,0.34629026,0.2182384,0.43590704,0.610389,0.31617102,-0.21353579,-0.08271622,-0.09923525,828.4249,817.9487,807.8755,833.2601,986.77655,0.0,0.0,0.20751953125,0.0526123046875,0.96124267578125,4.05242919921875,6.6094970703125,1.136474609375,534285.7142857143,94633040.29304028,59340366.3003663,79.86944,1.0,1.0,1.0,1.0,1.0,20.0,,0 days 00:00:00
2023-11-09 13:36:33.046,1.1405445,1.0211408,1.4157095,0.96040064,0.7775288,0.41103223,0.77210647,0.63645005,0.78240955,0.3759594,0.5306281,0.42828798,0.34629026,0.2182384,0.43590704,0.610389,0.31617102,-0.21353579,-0.08271622,-0.09923525,840.10986,817.1429,800.2198,852.1978,822.381,0.0,0.0,0.20751953125,0.0526123046875,0.96124267578125,4.05242919921875,6.6094970703125,1.136474609375,534285.7142857143,94633040.29304028,59340366.3003663,79.86944,1.0,1.0,1.0,1.0,1.0,20.0,,0 days 00:00:00.002000
2023-11-09 13:36:33.047,1.1405445,1.0211408,1.4157095,0.96040064,0.7775288,0.41103223,0.77210647,0.63645005,0.78240955,0.3759594,0.5306281,0.42828798,0.34629026,0.2182384,0.43590704,0.610389,0.31617102,-0.21353579,-0.08271622,-0.09923525,853.00366,817.5458,793.7729,856.2271,739.3773,0.0,0.0,0.20751953125,0.0526123046875,0.96124267578125,4.05242919921875,6.6094970703125,1.136474609375,534285.7142857143,94633040.29304028,59340366.3003663,79.86944,1.0,1.0,1.0,1.0,1.0,20.0,,0 days 00:00:00.001000
2023-11-09 13:36:33.048,1.1405445,1.0211408,1.4157095,0.96040064,0.7775288,0.41103223,0.77210647,0.63645005,0.78240955,0.3759594,0.5306281,0.42828798,0.34629026,0.2182384,0.43590704,0.610389,0.31617102,-0.21353579,-0.08271622,-0.09923525,850.58606,818.3516,792.1612,846.1539,798.20514,0.0,0.0,0.20751953125,0.0526123046875,0.96124267578125,4.05242919921875,6.6094970703125,1.136474609375,534285.7142857143,94633040.29304028,59340366.3003663,79.86944,1.0,1.0,1.0,1.0,1.0,20.0,,0 days 00:00:00.001000
2023-11-09 13:36:33.048,1.1405445,1.0211408,1.4157095,0.96040064,0.7775288,0.41103223,0.77210647,0.63645005,0.78240955,0.3759594,0.5306281,0.42828798,0.34629026,0.2182384,0.43590704,0.610389,0.31617102,-0.21353579,-0.08271622,-0.09923525,830.4396,813.91943,791.3553,859.0476,996.4469,0.0,0.0,0.20751953125,0.0526123046875,0.96124267578125,4.05242919921875,6.6094970703125,1.136474609375,534285.7142857143,94633040.29304028,59340366.3003663,79.86944,1.0,1.0,1.0,1.0,1.0,20.0,,0 days 00:00:00
2023-11-09 13:36:33.049,1.1405445,1.0211408,1.4157095,0.96040064,0.7775288,0.41103223,0.77210647,0.63645005,0.78240955,0.3759594,0.5306281,0.42828798,0.34629026,0.2182384,0.43590704,0.610389,0.31617102,-0.21353579,-0.08271622,-0.09923525,826.8132,817.1429,790.54944,861.8681,885.2381,0.0,0.0,0.20751953125,0.0526123046875,0.96124267578125,4.05242919921875,6.6094970703125,1.136474609375,534285.7142857143,94633040.29304028,59340366.3003663,79.86944,1.0,1.0,1.0,1.0,1.0,20.0,,0 days 00:00:00.001000
2023-11-09 13:36:33.049,1.1405445,1.0211408,1.4157095,0.96040064,0.7775288,0.41103223,0.77210647,0.63645005,0.78240955,0.3759594,0.5306281,0.42828798,0.34629026,0.2182384,0.43590704,0.610389,0.31617102,-0.21353579,-0.08271622,-0.09923525,843.73627,827.619,790.9524,857.8388,686.5934,0.0,0.0,0.20751953125,0.0526123046875,0.96124267578125,4.05242919921875,6.6094970703125,1.136474609375,534285.7142857143,94633040.29304028,59340366.3003663,79.86944,1.0,1.0,1.0,1.0,1.0,20.0,,0 days 00:00:00
2023-11-09 13:36:33.080,1.1405445,1.0211408,1.4157095,0.96040064,0.7775288,0.41103223,0.77210647,0.63645005,0.78240955,0.3759594,0.5306281,0.42828798,0.34629026,0.2182384,0.43590704,0.610389,0.31617102,-0.21353579,-0.08271622,-0.09923525,834.4689,823.1868,790.9524,843.73627,709.9634,0.0,0.0,0.18975830078125,0.05474853515625,0.96923828125,3.39447021484375,-3.96270751953125,1.1663818359375,534285.7142857143,94633040.29304028,59340366.3003663,79.86944,1.0,1.0,1.0,1.0,1.0,20.0,,0 days 00:00:00.031000
2023-11-09 13:36:33.081,1.1405445,1.0211408,1.4157095,0.96040064,0.7775288,0.41103223,0.77210647,0.63645005,0.78240955,0.3759594,0.5306281,0.42828798,0.34629026,0.2182384,0.43590704,0.610389,0.31617102,-0.21353579,-0.08271622,-0.09923525,818.7546,817.5458,790.9524,829.2308,680.9524,0.0,0.0,0.18975830078125,0.05474853515625,0.96923828125,3.39447021484375,-3.96270751953125,1.1663818359375,534285.7142857143,94633040.29304028,59340366.3003663,79.86944,1.0,1.0,1.0,1.0,1.0,20.0,,0 days 00:00:00.001000
2023-11-09 13:36:33.081,1.1405445,1.0211408,1.4157095,0.96040064,0.7775288,0.41103223,0.77210647,0.63645005,0.78240955,0.3759594,0.5306281,0.42828798,0.34629026,0.2182384,0.43590704,0.610389,0.31617102,-0.21353579,-0.08271622,-0.09923525,826.4103,816.7399,791.3553,841.31866,662.8205,0.0,0.0,0.18975830078125,0.05474853515625,0.96923828125,3.39447021484375,-3.96270751953125,1.1663818359375,534285.7142857143,94633040.29304028,59340366.3003663,79.86944,1.0,1.0,1.0,1.0,1.0,20.0,,0 days 00:00:00
2023-11-09 13:36:33.082,1.1405445,1.0211408,1.4157095,0.96040064,0.7775288,0.41103223,0.77210647,0.63645005,0.78240955,0.3759594,0.5306281,0.42828798,0.34629026,0.2182384,0.43590704,0.610389,0.31617102,-0.21353579,-0.08271622,-0.09923525,829.2308,820.7692,791.3553,842.9304,689.81683,0.0,0.0,0.18975830078125,0.05474853515625,0.96923828125,3.39447021484375,-3.96270751953125,1.1663818359375,534285.7142857143,94633040.29304028,59340366.3003663,79.86944,1.0,1.0,1.0,1.0,1.0,20.0,,0 days 00:00:00.001000
2023-11-09 13:36:33.082,1.1405445,1.0211408,1.4157095,0.96040064,0.7775288,0.41103223,0.77210647,0.63645005,0.78240955,0.3759594,0.5306281,0.42828798,0.34629026,0.2182384,0.43590704,0.610389,0.31617102,-0.21353579,-0.08271622,-0.09923525,821.1722,820.7692,792.96704,827.619,739.3773,0.0,0.0,0.18975830078125,0.05474853515625,0.96923828125,3.39447021484375,-3.96270751953125,1.1663818359375,534285.7142857143,94633040.29304028,59340366.3003663,79.86944,1.0,1.0,1.0,1.0,1.0,20.0,,0 days 00:00:00
2023-11-09 13:36:33.082,1.1405445,1.0211408,1.4157095,0.96040064,0.7775288,0.41103223,0.77210647,0.63645005,0.78240955,0.3759594,0.5306281,0.42828798,0.34629026,0.2182384,0.43590704,0.610389,0.31617102,-0.21353579,-0.08271622,-0.09923525,821.1722,815.5311,792.96704,819.9634,788.93774,0.0,0.0,0.18975830078125,0.05474853515625,0.96923828125,3.39447021484375,-3.96270751953125,1.1663818359375,534285.7142857143,94633040.29304028,59340366.3003663,79.86944,1.0,1.0,1.0,1.0,1.0,20.0,,0 days 00:00:00
2023-11-09 13:36:33.083,1.1405445,1.0211408,1.4157095,0.96040064,0.7775288,0.41103223,0.77210647,0.63645005,0.78240955,0.3759594,0.5306281,0.42828798,0.34629026,0.2182384,0.43590704,0.610389,0.31617102,-0.21353579,-0.08271622,-0.09923525,818.3516,814.7253,788.93774,816.7399,811.0989,0.0,0.0,0.18975830078125,0.05474853515625,0.96923828125,3.39447021484375,-3.96270751953125,1.1663818359375,534285.7142857143,94633040.29304028,59340366.3003663,79.86944,1.0,1.0,1.0,1.0,1.0,20.0,,0 days 00:00:00.001000
2023-11-09 13:36:33.083,1.1405445,1.0211408,1.4157095,0.96040064,0.7775288,0.41103223,0.77210647,0.63645005,0.78240955,0.3759594,0.5306281,0.42828798,0.34629026,0.2182384,0.43590704,0.610389,0.31617102,-0.21353579,-0.08271622,-0.09923525,830.84247,816.7399,790.9524,833.2601,821.5751,0.0,0.0,0.18975830078125,0.05474853515625,0.96923828125,3.39447021484375,-3.96270751953125,1.1663818359375,534285.7142857143,94633040.29304028,59340366.3003663,79.86944,1.0,1.0,1.0,1.0,1.0,20.0,,0 days 00:00:00
2023-11-09 13:36:33.083,1.1405445,1.0211408,1.4157095,0.96040064,0.7775288,0.41103223,0.77210647,0.63645005,0.78240955,0.3759594,0.5306281,0.42828798,0.34629026,0.2182384,0.43590704,0.610389,0.31617102,-0.21353579,-0.08271622,-0.09923525,842.9304,822.7839,798.60803,850.989,840.10986,0.0,0.0,0.18975830078125,0.05474853515625,0.96923828125,3.39447021484375,-3.96270751953125,1.1663818359375,534285.7142857143,94633040.29304028,59340366.3003663,79.86944,1.0,1.0,1.0,1.0,1.0,20.0,,0 days 00:00:00
2023-11-09 13:36:33.084,1.1405445,1.0211408,1.4157095,0.96040064,0.7775288,0.41103223,0.77210647,0.63645005,0.78240955,0.3759594,0.5306281,0.42828798,0.34629026,0.2182384,0.43590704,0.610389,0.31617102,-0.21353579,-0.08271622,-0.09923525,830.84247,824.7985,797.3993,825.2015,767.1795,0.0,0.0,0.18975830078125,0.05474853515625,0.96923828125,3.39447021484375,-3.96270751953125,1.1663818359375,534285.7142857143,94633040.29304028,59340366.3003663,79.86944,1.0,1.0,1.0,1.0,1.0,20.0,,0 days 00:00:00.001000
2023-11-09 13:36:33.084,1.1405445,1.0211408,1.4157095,0.96040064,0.7775288,0.41103223,0.77210647,0.63645005,0.78240955,0.3759594,0.5306281,0.42828798,0.34629026,0.2182384,0.43590704,0.610389,0.31617102,-0.21353579,-0.08271622,-0.09923525,827.619,823.1868,796.5934,818.3516,716.4103,0.0,0.0,0.18975830078125,0.05474853515625,0.96923828125,3.39447021484375,-3.96270751953125,1.1663818359375,534285.7142857143,94633040.29304028,59340366.3003663,79.86944,1.0,1.0,1.0,1.0,1.0,20.0,,0 days 00:00:00
2023-11-09 13:36:33.084,1.1405445,1.0211408,1.4157095,0.96040064,0.7775288,0.41103223,0.77210647,0.63645005,0.78240955,0.3759594,0.5306281,0.42828798,0.34629026,0.2182384,0.43590704,0.610389,0.31617102,-0.21353579,-0.08271622,-0.09923525,832.4542,821.5751,798.60803,834.4689,796.5934,0.0,0.0,0.18975830078125,0.05474853515625,0.96923828125,3.39447021484375,-3.96270751953125,1.1663818359375,534285.7142857143,94633040.29304028,59340366.3003663,79.86944,1.0,1.0,1.0,1.0,1.0,20.0,,0 days 00:00:00
2023-11-09 13:36:33.125,1.1405445,1.0211408,1.4157095,0.96040064,0.7775288,0.41103223,0.77210647,0.63645005,0.78240955,0.3759594,0.5306281,0.42828798,0.34629026,0.2182384,0.43590704,0.610389,0.31617102,-0.21353579,-0.08271622,-0.09923525,844.94507,815.9341,803.8461,861.06226,1043.9927,0.0,0.0,0.20428466796875,0.0599365234375,0.9737548828125,2.654266357421875,-10.48248291015625,-0.0299072265625,535091.575091575,94752307.6923077,59439487.179487176,79.86944,1.0,1.0,1.0,1.0,1.0,20.0,,0 days 00:00:00.041000
2023-11-09 13:36:33.126,1.1405445,1.0211408,1.4157095,0.96040064,0.7775288,0.41103223,0.77210647,0.63645005,0.78240955,0.3759594,0.5306281,0.42828798,0.34629026,0.2182384,0.43590704,0.610389,0.31617102,-0.21353579,-0.08271622,-0.09923525,835.2747,815.5311,809.0842,849.3773,1029.4872,0.0,0.0,0.20428466796875,0.0599365234375,0.9737548828125,2.654266357421875,-10.48248291015625,-0.0299072265625,535091.575091575,94752307.6923077,59439487.179487176,79.86944,1.0,1.0,1.0,1.0,1.0,20.0,,0 days 00:00:00.001000
2023-11-09 13:36:33.126,1.1405445,1.0211408,1.4157095,0.96040064,0.7775288,0.41103223,0.77210647,0.63645005,0.78240955,0.3759594,0.5306281,0.42828798,0.34629026,0.2182384,0.43590704,0.610389,0.31617102,-0.21353579,-0.08271622,-0.09923525,817.5458,819.15753,807.47253,813.5165,690.6227,0.0,0.0,0.20428466796875,0.0599365234375,0.9737548828125,2.654266357421875,-10.48248291015625,-0.0299072265625,535091.575091575,94752307.6923077,59439487.179487176,79.86944,1.0,1.0,1.0,1.0,1.0,20.0,,0 days 00:00:00
2023-11-09 13:36:33.127,1.1405445,1.0211408,1.4157095,0.96040064,0.7775288,0.41103223,0.77210647,0.63645005,0.78240955,0.3759594,0.5306281,0.42828798,0.34629026,0.2182384,0.43590704,0.610389,0.31617102,-0.21353579,-0.08271622,-0.09923525,830.84247,815.5311,807.0696,832.4542,698.68134,0.0,0.0,0.20428466796875,0.0599365234375,0.9737548828125,2.654266357421875,-10.48248291015625,-0.0299072265625,535091.575091575,94752307.6923077,59439487.179487176,79.86944,1.0,1.0,1.0,1.0,1.0,20.0,,0 days 00:00:00.001000
2023-11-09 13:36:33.127,1.1405445,1.0211408,1.4157095,0.96040064,0.7775288,0.41103223,0.77210647,0.63645005,0.78240955,0.3759594,0.5306281,0.42828798,0.34629026,0.2182384,0.43590704,0.610389,0.31617102,-0.21353579,-0.08271622,-0.09923525,830.4396,812.71063,807.47253,846.55676,819.9634,0.0,0.0,0.20428466796875,0.0599365234375,0.9737548828125,2.654266357421875,-10.48248291015625,-0.0299072265625,535091.575091575,94752307.6923077,59439487.179487176,79.86944,1.0,1.0,1.0,1.0,1.0,20.0,,0 days 00:00:00
2023-11-09 13:36:33.128,1.1405445,1.0211408,1.4157095,0.96040064,0.7775288,0.41103223,0.77210647,0.63645005,0.78240955,0.3759594,0.5306281,0.42828798,0.34629026,0.2182384,0.43590704,0.610389,0.31617102,-0.21353579,-0.08271622,-0.09923525,827.619,815.5311,810.696,839.304,816.337,0.0,0.0,0.20428466796875,0.0599365234375,0.9737548828125,2.654266357421875,-10.48248291015625,-0.0299072265625,535091.575091575,94752307.6923077,59439487.179487176,79.86944,1.0,1.0,1.0,1.0,1.0,20.0,,0 days 00:00:00.001000
2023-11-09 13:36:33.129,1.1405445,1.0211408,1.4157095,0.96040064,0.7775288,0.41103223,0.77210647,0.63645005,0.78240955,0.3759594,0.5306281,0.42828798,0.34629026,0.2182384,0.43590704,0.610389,0.31617102,-0.21353579,-0.08271622,-0.09923525,834.87177,817.9487,808.2784,821.978,784.90845,0.0,0.0,0.20428466796875,0.0599365234375,0.9737548828125,2.654266357421875,-10.48248291015625,-0.0299072265625,535091.575091575,94752307.6923077,59439487.179487176,79.86944,1.0,1.0,1.0,1.0,1.0,20.0,,0 days 00:00:00.001000
2023-11-09 13:36:33.129,1.1405445,0.994997,1.4157095,0.96040064,0.7775288,0.41932473,0.77210647,0.63645005,0.78240955,0.36469996,0.5306281,0.42828798,0.34629026,0.1899701,0.43590704,0.610389,0.31617102,-0.23704277,-0.08271622,-0.09923525,830.0366,813.1135,807.8755,821.5751,954.5421,0.0,0.0,0.20428466796875,0.0599365234375,0.9737548828125,2.654266357421875,-10.48248291015625,-0.0299072265625,535091.575091575,94752307.6923077,59439487.179487176,79.86944,1.0,1.0,1.0,1.0,1.0,20.0,,0 days 00:00:00
2023-11-09 13:36:33.131,1.1405445,0.994997,1.4157095,0.96040064,0.7775288,0.41932473,0.77210647,0.63645005,0.78240955,0.36469996,0.5306281,0.42828798,0.34629026,0.1899701,0.43590704,0.610389,0.31617102,-0.23704277,-0.08271622,-0.09923525,836.08057,811.0989,815.12823,834.4689,1011.75824,0.0,0.0,0.20428466796875,0.0599365234375,0.9737548828125,2.654266357421875,-10.48248291015625,-0.0299072265625,535091.575091575,94752307.6923077,59439487.179487176,79.86944,1.0,1.0,1.0,1.0,1.0,20.0,,0 days 00:00:00.002000
2023-11-09 13:36:33.132,1.1405445,0.994997,1.4157095,0.96040064,0.7775288,0.41932473,0.77210647,0.63645005,0.78240955,0.36469996,0.5306281,0.42828798,0.34629026,0.1899701,0.43590704,0.610389,0.31617102,-0.23704277,-0.08271622,-0.09923525,833.2601,813.91943,813.91943,826.0073,836.4835,0.0,0.0,0.20428466796875,0.0599365234375,0.9737548828125,2.654266357421875,-10.48248291015625,-0.0299072265625,535091.575091575,94752307.6923077,59439487.179487176,79.86944,1.0,1.0,1.0,1.0,1.0,20.0,,0 days 00:00:00.001000
2023-11-09 13:36:33.133,1.1405445,0.994997,1.4157095,0.96040064,0.7775288,0.41932473,0.77210647,0.63645005,0.78240955,0.36469996,0.5306281,0.42828798,0.34629026,0.1899701,0.43590704,0.610389,0.31617102,-0.23704277,-0.08271622,-0.09923525,821.5751,810.696,813.1135,815.5311,774.83514,0.0,0.0,0.20428466796875,0.0599365234375,0.9737548828125,2.654266357421875,-10.48248291015625,-0.0299072265625,535091.575091575,94752307.6923077,59439487.179487176,79.86944,1.0,1.0,1.0,1.0,1.0,20.0,,0 days 00:00:00.001000
2023-11-09 13:36:33.133,1.1405445,0.994997,1.4157095,0.96040064,0.7775288,0.41932473,0.77210647,0.63645005,0.78240955,0.36469996,0.5306281,0.42828798,0.34629026,0.1899701,0.43590704,0.610389,0.31617102,-0.23704277,-0.08271622,-0.09923525,813.91943,803.8461,812.3077,815.9341,843.73627,0.0,0.0,0.20428466796875,0.0599365234375,0.9737548828125,2.654266357421875,-10.48248291015625,-0.0299072265625,535091.575091575,94752307.6923077,59439487.179487176,79.86944,1.0,1.0,1.0,1.0,1.0,20.0,,0 days 00:00:00
2023-11-09 13:36:33.167,1.1405445,0.994997,1.4157095,0.96040064,0.7775288,0.41932473,0.77210647,0.63645005,0.78240955,0.36469996,0.5306281,0.42828798,0.34629026,0.1899701,0.43590704,0.610389,0.31617102,-0.23704277,-0.08271622,-0.09923525,828.022,798.20514,814.7253,845.34796,1122.967,0.0,0.0,0.21893310546875,0.05517578125,0.97869873046875,2.01873779296875,-10.654449462890623,-1.1663818359375,535091.575091575,94752307.6923077,59439487.179487176,79.86944,1.0,1.0,1.0,1.0,1.0,20.0,,0 days 00:00:00.034000
2023-11-09 13:36:33.167,1.1405445,0.994997,1.4157095,0.96040064,0.7775288,0.41932473,0.77210647,0.63645005,0.78240955,0.36469996,0.5306281,0.42828798,0.34629026,0.1899701,0.43590704,0.610389,0.31617102,-0.23704277,-0.08271622,-0.09923525,822.7839,802.6374,816.7399,843.73627,1019.011,0.0,0.0,0.21893310546875,0.05517578125,0.97869873046875,2.01873779296875,-10.654449462890623,-1.1663818359375,535091.575091575,94752307.6923077,59439487.179487176,79.86944,1.0,1.0,1.0,1.0,1.0,20.0,,0 days 00:00:00
2023-11-09 13:36:33.167,1.1405445,0.994997,1.4157095,0.96040064,0.7775288,0.41932473,0.77210647,0.63645005,0.78240955,0.36469996,0.5306281,0.42828798,0.34629026,0.1899701,0.43590704,0.610389,0.31617102,-0.23704277,-0.08271622,-0.09923525,805.8608,809.4872,819.5604,815.9341,730.5128,0.0,0.0,0.21893310546875,0.05517578125,0.97869873046875,2.01873779296875,-10.654449462890623,-1.1663818359375,535091.575091575,94752307.6923077,59439487.179487176,79.86944,1.0,1.0,1.0,1.0,1.0,20.0,,0 days 00:00:00
2023-11-09 13:36:33.168,1.1405445,0.994997,1.4157095,0.96040064,0.7775288,0.41932473,0.77210647,0.63645005,0.78240955,0.36469996,0.5306281,0.42828798,0.34629026,0.1899701,0.43590704,0.610389,0.31617102,-0.23704277,-0.08271622,-0.09923525,814.7253,810.696,817.1429,815.12823,684.57874,0.0,0.0,0.21893310546875,0.05517578125,0.97869873046875,2.01873779296875,-10.654449462890623,-1.1663818359375,535091.575091575,94752307.6923077,59439487.179487176,79.86944,1.0,1.0,1.0,1.0,1.0,20.0,,0 days 00:00:00.001000
2023-11-09 13:36:33.168,1.1405445,0.994997,1.4157095,0.96040064,0.7775288,0.41932473,0.77210647,0.63645005,0.78240955,0.36469996,0.5306281,0.42828798,0.34629026,0.1899701,0.43590704,0.610389,0.31617102,-0.23704277,-0.08271622,-0.09923525,806.6667,810.293,818.3516,818.7546,697.47253,0.0,0.0,0.21893310546875,0.05517578125,0.97869873046875,2.01873779296875,-10.654449462890623,-1.1663818359375,535091.575091575,94752307.6923077,59439487.179487176,79.86944,1.0,1.0,1.0,1.0,1.0,20.0,,0 days 00:00:00
2023-11-09 13:36:33.169,1.1405445,0.994997,1.4157095,0.96040064,0.7775288,0.41932473,0.77210647,0.63645005,0.78240955,0.36469996,0.5306281,0.42828798,0.34629026,0.1899701,0.43590704,0.610389,0.31617102,-0.23704277,-0.08271622,-0.09923525,808.68134,809.0842,821.978,833.663,780.4762,0.0,0.0,0.21893310546875,0.05517578125,0.97869873046875,2.01873779296875,-10.654449462890623,-1.1663818359375,535091.575091575,94752307.6923077,59439487.179487176,79.86944,1.0,1.0,1.0,1.0,1.0,20.0,,0 days 00:00:00.001000
2023-11-09 13:36:33.169,1.1405445,0.994997,1.4157095,0.96040064,0.7775288,0.41932473,0.77210647,0.63645005,0.78240955,0.36469996,0.5306281,0.42828798,0.34629026,0.1899701,0.43590704,0.610389,0.31617102,-0.23704277,-0.08271622,-0.09923525,819.9634,811.50183,817.9487,821.1722,784.10254,0.0,0.0,0.21893310546875,0.05517578125,0.97869873046875,2.01873779296875,-10.654449462890623,-1.1663818359375,535091.575091575,94752307.6923077,59439487.179487176,79.86944,1.0,1.0,1.0,1.0,1.0,20.0,,0 days 00:00:00
2023-11-09 13:36:33.169,1.1405445,0.994997,1.4157095,0.96040064,0.7775288,0.41932473,0.77210647,0.63645005,0.78240955,0.36469996,0.5306281,0.42828798,0.34629026,0.1899701,0.43590704,0.610389,0.31617102,-0.23704277,-0.08271622,-0.09923525,821.1722,814.7253,817.9487,821.978,921.50183,0.0,0.0,0.21893310546875,0.05517578125,0.97869873046875,2.01873779296875,-10.654449462890623,-1.1663818359375,535091.575091575,94752307.6923077,59439487.179487176,79.86944,1.0,1.0,1.0,1.0,1.0,20.0,,0 days 00:00:00
2023-11-09 13:36:33.170,1.1405445,0.994997,1.4157095,0.96040064,0.7775288,0.41932473,0.77210647,0.63645005,0.78240955,0.36469996,0.5306281,0.42828798,0.34629026,0.1899701,0.43590704,0.610389,0.31617102,-0.23704277,-0.08271622,-0.09923525,818.7546,813.5165,820.3663,835.2747,940.84247,0.0,0.0,0.21893310546875,0.05517578125,0.97869873046875,2.01873779296875,-10.654449462890623,-1.1663818359375,535091.575091575,94752307.6923077,59439487.179487176,79.86944,1.0,1.0,1.0,1.0,1.0,20.0,,0 days 00:00:00.001000
2023-11-09 13:36:33.170,1.1405445,0.994997,1.4157095,0.96040064,0.7775288,0.41932473,0.77210647,0.63645005,0.78240955,0.36469996,0.5306281,0.42828798,0.34629026,0.1899701,0.43590704,0.610389,0.31617102,-0.23704277,-0.08271622,-0.09923525,821.978,814.3223,814.7253,822.7839,758.315,0.0,0.0,0.21893310546875,0.05517578125,0.97869873046875,2.01873779296875,-10.654449462890623,-1.1663818359375,535091.575091575,94752307.6923077,59439487.179487176,79.86944,1.0,1.0,1.0,1.0,1.0,20.0,,0 days 00:00:00
2023-11-09 13:36:33.170,1.1405445,0.994997,1.4157095,0.96040064,0.7775288,0.41932473,0.77210647,0.63645005,0.78240955,0.36469996,0.5306281,0.42828798,0.34629026,0.1899701,0.43590704,0.610389,0.31617102,-0.23704277,-0.08271622,-0.09923525,821.1722,813.5165,812.3077,818.7546,805.4579,0.0,0.0,0.21893310546875,0.05517578125,0.97869873046875,2.01873779296875,-10.654449462890623,-1.1663818359375,535091.575091575,94752307.6923077,59439487.179487176,79.86944,1.0,1.0,1.0,1.0,1.0,20.0,,0 days 00:00:00
2023-11-09 13:36:33.171,1.1405445,0.994997,1.4157095,0.96040064,0.7775288,0.41932473,0.77210647,0.63645005,0.78240955,0.36469996,0.5306281,0.42828798,0.34629026,0.1899701,0.43590704,0.610389,0.31617102,-0.23704277,-0.08271622,-0.09923525,820.3663,810.696,823.1868,827.2161,796.1905,0.0,0.0,0.21893310546875,0.05517578125,0.97869873046875,2.01873779296875,-10.654449462890623,-1.1663818359375,535091.575091575,94752307.6923077,59439487.179487176,79.86944,1.0,1.0,1.0,1.0,1.0,20.0,,0 days 00:00:00.001000
2023-11-09 13:36:33.208,1.1405445,0.994997,1.4157095,0.96040064,0.7775288,0.41932473,0.77210647,0.63645005,0.78240955,0.36469996,0.5306281,0.42828798,0.34629026,0.1899701,0.43590704,0.610389,0.31617102,-0.23704277,-0.08271622,-0.09923525,817.5458,811.50183,825.6044,816.7399,667.25275,0.0,0.0,0.223876953125,0.05767822265625,0.98028564453125,2.684173583984375,-12.867584228515623,-3.730926513671875,528644.6886446886,94777289.37728935,59453186.81318681,79.86944,1.0,1.0,1.0,1.0,1.0,20.0,,0 days 00:00:00.037000
2023-11-09 13:36:33.209,1.1405445,0.994997,1.4157095,0.96040064,0.7775288,0.41932473,0.77210647,0.63645005,0.78240955,0.36469996,0.5306281,0.42828798,0.34629026,0.1899701,0.43590704,0.610389,0.31617102,-0.23704277,-0.08271622,-0.09923525,816.337,808.2784,823.9927,811.9048,634.61536,0.0,0.0,0.223876953125,0.05767822265625,0.98028564453125,2.684173583984375,-12.867584228515623,-3.730926513671875,528644.6886446886,94777289.37728935,59453186.81318681,79.86944,1.0,1.0,1.0,1.0,1.0,20.0,,0 days 00:00:00.001000
2023-11-09 13:36:33.210,1.1405445,0.994997,1.4157095,0.96040064,0.7775288,0.41932473,0.77210647,0.63645005,0.78240955,0.36469996,0.5306281,0.42828798,0.34629026,0.1899701,0.43590704,0.610389,0.31617102,-0.23704277,-0.08271622,-0.09923525,816.337,805.05493,826.0073,829.2308,772.4176,0.0,0.0,0.223876953125,0.05767822265625,0.98028564453125,2.684173583984375,-12.867584228515623,-3.730926513671875,528644.6886446886,94777289.37728935,59453186.81318681,79.86944,1.0,1.0,1.0,1.0,1.0,20.0,,0 days 00:00:00.001000
2023-11-09 13:36:33.210,1.1405445,0.994997,1.4157095,0.96040064,0.7775288,0.41932473,0.77210647,0.63645005,0.78240955,0.36469996,0.5306281,0.42828798,0.34629026,0.1899701,0.43590704,0.610389,0.31617102,-0.23704277,-0.08271622,-0.09923525,809.89014,799.011,826.4103,834.87177,812.71063,0.0,0.0,0.223876953125,0.05767822265625,0.98028564453125,2.684173583984375,-12.867584228515623,-3.730926513671875,528644.6886446886,94777289.37728935,59453186.81318681,79.86944,1.0,1.0,1.0,1.0,1.0,20.0,,0 days 00:00:00
2023-11-09 13:36:33.211,1.1405445,0.994997,1.4157095,0.96040064,0.7775288,0.41932473,0.77210647,0.63645005,0.78240955,0.36469996,0.5306281,0.42828798,0.34629026,0.1899701,0.43590704,0.610389,0.31617102,-0.23704277,-0.08271622,-0.09923525,839.707,809.89014,813.91943,835.6777,750.2564,0.0,0.0,0.223876953125,0.05767822265625,0.98028564453125,2.684173583984375,-12.867584228515623,-3.730926513671875,528644.6886446886,94777289.37728935,59453186.81318681,79.86944,1.0,1.0,1.0,1.0,1.0,20.0,,0 days 00:00:00.001000
2023-11-09 13:36:33.212,1.1405445,0.994997,1.4157095,0.96040064,0.7775288,0.41932473,0.77210647,0.63645005,0.78240955,0.36469996,0.5306281,0.42828798,0.34629026,0.1899701,0.43590704,0.610389,0.31617102,-0.23704277,-0.08271622,-0.09923525,838.49817,821.5751,810.293,833.2601,792.1612,0.0,0.0,0.223876953125,0.05767822265625,0.98028564453125,2.684173583984375,-12.867584228515623,-3.730926513671875,528644.6886446886,94777289.37728935,59453186.81318681,79.86944,1.0,1.0,1.0,1.0,1.0,20.0,,0 days 00:00:00.001000
2023-11-09 13:36:33.212,1.1405445,0.994997,1.4157095,0.96040064,0.7775288,0.41932473,0.77210647,0.63645005,0.78240955,0.36469996,0.5306281,0.42828798,0.34629026,0.1899701,0.43590704,0.610389,0.31617102,-0.23704277,-0.08271622,-0.09923525,811.0989,810.293,818.3516,819.9634,854.61536,0.0,0.0,0.223876953125,0.05767822265625,0.98028564453125,2.684173583984375,-12.867584228515623,-3.730926513671875,528644.6886446886,94777289.37728935,59453186.81318681,79.86944,1.0,1.0,1.0,1.0,1.0,20.0,,0 days 00:00:00
2023-11-09 13:36:33.213,1.1405445,0.994997,1.4157095,0.96040064,0.7775288,0.41932473,0.77210647,0.63645005,0.78240955,0.36469996,0.5306281,0.42828798,0.34629026,0.1899701,0.43590704,0.610389,0.31617102,-0.23704277,-0.08271622,-0.09923525,803.8461,814.3223,811.0989,818.7546,1097.9854,0.0,0.0,0.223876953125,0.05767822265625,0.98028564453125,2.684173583984375,-12.867584228515623,-3.730926513671875,528644.6886446886,94777289.37728935,59453186.81318681,79.86944,1.0,1.0,1.0,1.0,1.0,20.0,,0 days 00:00:00.001000
2023-11-09 13:36:33.213,1.1405445,0.994997,1.4157095,0.96040064,0.7775288,0.41932473,0.77210647,0.63645005,0.78240955,0.36469996,0.5306281,0.42828798,0.34629026,0.1899701,0.43590704,0.610389,0.31617102,-0.23704277,-0.08271622,-0.09923525,780.07324,826.0073,807.47253,822.7839,986.77655,0.0,0.0,0.223876953125,0.05767822265625,0.98028564453125,2.684173583984375,-12.867584228515623,-3.730926513671875,528644.6886446886,94777289.37728935,59453186.81318681,79.86944,1.0,1.0,1.0,1.0,1.0,20.0,,0 days 00:00:00
2023-11-09 13:36:33.214,1.1405445,0.97311836,1.4157095,0.96040064,0.7775288,0.43272683,0.77210647,0.63645005,0.78240955,0.3629719,0.5306281,0.42828798,0.34629026,0.15364757,0.43590704,0.610389,0.31617102,-0.2672095,-0.08271622,-0.09923525,786.52014,830.4396,805.4579,800.6227,724.4689,0.0,0.0,0.223876953125,0.05767822265625,0.98028564453125,2.684173583984375,-12.867584228515623,-3.730926513671875,528644.6886446886,94777289.37728935,59453186.81318681,79.86944,1.0,1.0,1.0,1.0,1.0,20.0,,0 days 00:00:00.001000
2023-11-09 13:36:33.216,1.1405445,0.97311836,1.4157095,0.96040064,0.7775288,0.43272683,0.77210647,0.63645005,0.78240955,0.3629719,0.5306281,0.42828798,0.34629026,0.15364757,0.43590704,0.610389,0.31617102,-0.2672095,-0.08271622,-0.09923525,801.4286,834.4689,802.23444,780.87915,886.8498,0.0,0.0,0.223876953125,0.05767822265625,0.98028564453125,2.684173583984375,-12.867584228515623,-3.730926513671875,528644.6886446886,94777289.37728935,59453186.81318681,79.86944,1.0,1.0,1.0,1.0,1.0,20.0,,0 days 00:00:00.002000
2023-11-09 13:36:33.216,1.1405445,0.97311836,1.4157095,0.96040064,0.7775288,0.43272683,0.77210647,0.63645005,0.78240955,0.3629719,0.5306281,0.42828798,0.34629026,0.15364757,0.43590704,0.610389,0.31617102,-0.2672095,-0.08271622,-0.09923525,799.011,836.4835,804.2491,771.2088,863.47986,0.0,0.0,0.223876953125,0.05767822265625,0.98028564453125,2.684173583984375,-12.867584228515623,-3.730926513671875,528644.6886446886,94777289.37728935,59453186.81318681,79.86944,1.0,1.0,1.0,1.0,1.0,20.0,,0 days 00:00:00
2023-11-09 13:36:33.255,1.1405445,0.97311836,1.4157095,0.96040064,0.7775288,0.43272683,0.77210647,0.63645005,0.78240955,0.3629719,0.5306281,0.42828798,0.34629026,0.15364757,0.43590704,0.610389,0.31617102,-0.2672095,-0.08271622,-0.09923525,785.31134,843.3333,805.05493,760.7326,695.8608,0.0,0.0,0.223876953125,0.05767822265625,0.98028564453125,2.684173583984375,-12.867584228515623,-3.730926513671875,528644.6886446886,94777289.37728935,59453186.81318681,79.86944,1.0,1.0,1.0,1.0,1.0,20.0,,0 days 00:00:00.039000
2023-11-09 13:36:33.256,1.1405445,0.97311836,1.4157095,0.96040064,0.7775288,0.43272683,0.77210647,0.63645005,0.78240955,0.3629719,0.5306281,0.42828798,0.34629026,0.15364757,0.43590704,0.610389,0.31617102,-0.2672095,-0.08271622,-0.09923525,784.10254,846.55676,798.60803,765.9707,697.0696,0.0,0.0,0.223876953125,0.05767822265625,0.98028564453125,2.684173583984375,-12.867584228515623,-3.730926513671875,528644.6886446886,94777289.37728935,59453186.81318681,79.86944,1.0,1.0,1.0,1.0,1.0,20.0,,0 days 00:00:00.001000
2023-11-09 13:36:33.256,1.1405445,0.97311836,1.4157095,0.96040064,0.7775288,0.43272683,0.77210647,0.63645005,0.78240955,0.3629719,0.5306281,0.42828798,0.34629026,0.15364757,0.43590704,0.610389,0.31617102,-0.2672095,-0.08271622,-0.09923525,807.0696,846.9597,795.78754,804.2491,823.9927,0.0,0.0,0.223876953125,0.05767822265625,0.98028564453125,2.684173583984375,-12.867584228515623,-3.730926513671875,528644.6886446886,94777289.37728935,59453186.81318681,79.86944,1.0,1.0,1.0,1.0,1.0,20.0,,0 days 00:00:00
2023-11-09 13:36:33.257,1.1405445,0.97311836,1.4157095,0.96040064,0.7775288,0.43272683,0.77210647,0.63645005,0.78240955,0.3629719,0.5306281,0.42828798,0.34629026,0.15364757,0.43590704,0.610389,0.31617102,-0.2672095,-0.08271622,-0.09923525,796.99634,845.7509,802.23444,814.3223,792.1612,0.0,0.0,0.223876953125,0.05767822265625,0.98028564453125,2.684173583984375,-12.867584228515623,-3.730926513671875,528644.6886446886,94777289.37728935,59453186.81318681,79.86944,1.0,1.0,1.0,1.0,1.0,20.0,,0 days 00:00:00.001000
2023-11-09 13:36:33.258,1.1405445,0.97311836,1.4157095,0.96040064,0.7775288,0.43272683,0.77210647,0.63645005,0.78240955,0.3629719,0.5306281,0.42828798,0.34629026,0.15364757,0.43590704,0.610389,0.31617102,-0.2672095,-0.08271622,-0.09923525,780.4762,841.7216,805.05493,782.0879,709.9634,0.0,0.0,0.223876953125,0.05767822265625,0.98028564453125,2.684173583984375,-12.867584228515623,-3.730926513671875,528644.6886446886,94777289.37728935,59453186.81318681,79.86944,1.0,1.0,1.0,1.0,1.0,20.0,,0 days 00:00:00.001000
2023-11-09 13:36:33.258,1.1405445,0.97311836,1.4157095,0.96040064,0.7775288,0.43272683,0.77210647,0.63645005,0.78240955,0.3629719,0.5306281,0.42828798,0.34629026,0.15364757,0.43590704,0.610389,0.31617102,-0.2672095,-0.08271622,-0.09923525,789.7436,837.28937,798.60803,763.5531,709.15753,0.0,0.0,0.223876953125,0.05767822265625,0.98028564453125,2.684173583984375,-12.867584228515623,-3.730926513671875,528644.6886446886,94777289.37728935,59453186.81318681,79.86944,1.0,1.0,1.0,1.0,1.0,20.0,,0 days 00:00:00
2023-11-09 13:36:33.259,1.1405445,0.97311836,1.4157095,0.96040064,0.7775288,0.43272683,0.77210647,0.63645005,0.78240955,0.3629719,0.5306281,0.42828798,0.34629026,0.15364757,0.43590704,0.610389,0.31617102,-0.2672095,-0.08271622,-0.09923525,809.89014,828.8278,792.5641,818.7546,946.4835,0.0,0.0,0.223876953125,0.05767822265625,0.98028564453125,2.684173583984375,-12.867584228515623,-3.730926513671875,528644.6886446886,94777289.37728935,59453186.81318681,79.86944,1.0,1.0,1.0,1.0,1.0,20.0,,0 days 00:00:00.001000
2023-11-09 13:36:33.259,1.1405445,0.97311836,1.4157095,0.96040064,0.7775288,0.43272683,0.77210647,0.63645005,0.78240955,0.3629719,0.5306281,0.42828798,0.34629026,0.15364757,0.43590704,0.610389,0.31617102,-0.2672095,-0.08271622,-0.09923525,793.36993,821.5751,794.17584,823.1868,1053.663,0.0,0.0,0.223876953125,0.05767822265625,0.98028564453125,2.684173583984375,-12.867584228515623,-3.730926513671875,528644.6886446886,94777289.37728935,59453186.81318681,79.86944,1.0,1.0,1.0,1.0,1.0,20.0,,0 days 00:00:00
2023-11-09 13:36:33.260,1.1405445,0.97311836,1.4157095,0.96040064,0.7775288,0.43272683,0.77210647,0.63645005,0.78240955,0.3629719,0.5306281,0.42828798,0.34629026,0.15364757,0.43590704,0.610389,0.31617102,-0.2672095,-0.08271622,-0.09923525,773.6264,826.0073,800.2198,761.53845,760.7326,0.0,0.0,0.223876953125,0.05767822265625,0.98028564453125,2.684173583984375,-12.867584228515623,-3.730926513671875,528644.6886446886,94777289.37728935,59453186.81318681,79.86944,1.0,1.0,1.0,1.0,1.0,20.0,,0 days 00:00:00.001000
2023-11-09 13:36:33.260,1.1405445,0.97311836,1.4157095,0.96040064,0.7775288,0.43272683,0.77210647,0.63645005,0.78240955,0.3629719,0.5306281,0.42828798,0.34629026,0.15364757,0.43590704,0.610389,0.31617102,-0.2672095,-0.08271622,-0.09923525,782.49084,824.3956,803.0403,782.0879,690.6227,0.0,0.0,0.223876953125,0.05767822265625,0.98028564453125,2.684173583984375,-12.867584228515623,-3.730926513671875,528644.6886446886,94777289.37728935,59453186.81318681,79.86944,1.0,1.0,1.0,1.0,1.0,20.0,,0 days 00:00:00
2023-11-09 13:36:33.261,1.1405445,0.97311836,1.4157095,0.96040064,0.7775288,0.43272683,0.77210647,0.63645005,0.78240955,0.3629719,0.5306281,0.42828798,0.34629026,0.15364757,0.43590704,0.610389,0.31617102,-0.2672095,-0.08271622,-0.09923525,779.2674,819.9634,798.60803,792.1612,722.0513,0.0,0.0,0.223876953125,0.05767822265625,0.98028564453125,2.684173583984375,-12.867584228515623,-3.730926513671875,528644.6886446886,94777289.37728935,59453186.81318681,79.86944,1.0,1.0,1.0,1.0,1.0,20.0,,0 days 00:00:00.001000
2023-11-09 13:36:33.262,1.1405445,0.97311836,1.4157095,0.96040064,0.7775288,0.43272683,0.77210647,0.63645005,0.78240955,0.3629719,0.5306281,0.42828798,0.34629026,0.15364757,0.43590704,0.610389,0.31617102,-0.2672095,-0.08271622,-0.09923525,783.2967,823.5897,802.6374,806.26373,708.7546,0.0,0.0,0.223876953125,0.05767822265625,0.98028564453125,2.684173583984375,-12.867584228515623,-3.730926513671875,528644.6886446886,94777289.37728935,59453186.81318681,79.86944,1.0,1.0,1.0,1.0,1.0,20.0,,0 days 00:00:00.001000
2023-11-09 13:36:33.304,1.1405445,0.97311836,1.4157095,0.96040064,0.7775288,0.43272683,0.77210647,0.63645005,0.78240955,0.3629719,0.5306281,0.42828798,0.34629026,0.15364757,0.43590704,0.610389,0.31617102,-0.2672095,-0.08271622,-0.09923525,781.28204,821.5751,801.02563,801.4286,696.26373,0.0,0.0,0.2449951171875,0.06781005859375,0.9837646484375,3.30474853515625,-16.934967041015625,-8.32916259765625,528644.6886446886,94695897.43589744,59407252.74725275,79.86944,1.0,1.0,1.0,1.0,1.0,20.0,,0 days 00:00:00.042000
2023-11-09 13:36:33.305,1.1405445,0.97311836,1.4157095,0.96040064,0.7775288,0.43272683,0.77210647,0.63645005,0.78240955,0.3629719,0.5306281,0.42828798,0.34629026,0.15364757,0.43590704,0.610389,0.31617102,-0.2672095,-0.08271622,-0.09923525,788.93774,819.5604,801.8315,804.2491,745.42126,0.0,0.0,0.2449951171875,0.06781005859375,0.9837646484375,3.30474853515625,-16.934967041015625,-8.32916259765625,528644.6886446886,94695897.43589744,59407252.74725275,79.86944,1.0,1.0,1.0,1.0,1.0,20.0,,0 days 00:00:00.001000
2023-11-09 13:36:33.306,1.1405445,0.97311836,1.4157095,0.96040064,0.7775288,0.43272683,0.77210647,0.63645005,0.78240955,0.3629719,0.5306281,0.42828798,0.34629026,0.15364757,0.43590704,0.610389,0.31617102,-0.2672095,-0.08271622,-0.09923525,796.99634,814.3223,804.65204,795.78754,759.5238,0.0,0.0,0.2449951171875,0.06781005859375,0.9837646484375,3.30474853515625,-16.934967041015625,-8.32916259765625,528644.6886446886,94695897.43589744,59407252.74725275,79.86944,1.0,1.0,1.0,1.0,1.0,20.0,,0 days 00:00:00.001000
2023-11-09 13:36:33.306,1.1405445,0.97311836,1.4157095,0.96040064,0.7775288,0.43272683,0.77210647,0.63645005,0.78240955,0.3629719,0.5306281,0.42828798,0.34629026,0.15364757,0.43590704,0.610389,0.31617102,-0.2672095,-0.08271622,-0.09923525,794.57874,810.293,801.4286,794.17584,790.9524,0.0,0.0,0.2449951171875,0.06781005859375,0.9837646484375,3.30474853515625,-16.934967041015625,-8.32916259765625,528644.6886446886,94695897.43589744,59407252.74725275,79.86944,1.0,1.0,1.0,1.0,1.0,20.0,,0 days 00:00:00
2023-11-09 13:36:33.307,1.1405445,0.97311836,1.4157095,0.96040064,0.7775288,0.43272683,0.77210647,0.63645005,0.78240955,0.3629719,0.5306281,0.42828798,0.34629026,0.15364757,0.43590704,0.610389,0.31617102,-0.2672095,-0.08271622,-0.09923525,782.49084,806.26373,803.8461,802.23444,797.8022,0.0,0.0,0.2449951171875,0.06781005859375,0.9837646484375,3.30474853515625,-16.934967041015625,-8.32916259765625,528644.6886446886,94695897.43589744,59407252.74725275,79.86944,1.0,1.0,1.0,1.0,1.0,20.0,,0 days 00:00:00.001000
2023-11-09 13:36:33.307,1.1405445,0.97311836,1.4157095,0.96040064,0.7775288,0.43272683,0.77210647,0.63645005,0.78240955,0.3629719,0.5306281,0.42828798,0.34629026,0.15364757,0.43590704,0.610389,0.31617102,-0.2672095,-0.08271622,-0.09923525,786.9231,809.89014,801.4286,799.011,884.0293,0.0,0.0,0.2449951171875,0.06781005859375,0.9837646484375,3.30474853515625,-16.934967041015625,-8.32916259765625,528644.6886446886,94695897.43589744,59407252.74725275,79.86944,1.0,1.0,1.0,1.0,1.0,20.0,,0 days 00:00:00
2023-11-09 13:36:33.308,1.1405445,0.97311836,1.4157095,0.96040064,0.7775288,0.43272683,0.77210647,0.63645005,0.78240955,0.3629719,0.5306281,0.42828798,0.34629026,0.15364757,0.43590704,0.610389,0.31617102,-0.2672095,-0.08271622,-0.09923525,788.93774,816.337,805.8608,835.6777,1007.326,0.0,0.0,0.2449951171875,0.06781005859375,0.9837646484375,3.30474853515625,-16.934967041015625,-8.32916259765625,528644.6886446886,94695897.43589744,59407252.74725275,79.86944,1.0,1.0,1.0,1.0,1.0,20.0,,0 days 00:00:00.001000
2023-11-09 13:36:33.308,1.1405445,0.97311836,1.4157095,0.96040064,0.7775288,0.43272683,0.77210647,0.63645005,0.78240955,0.3629719,0.5306281,0.42828798,0.34629026,0.15364757,0.43590704,0.610389,0.31617102,-0.2672095,-0.08271622,-0.09923525,801.4286,815.5311,807.0696,852.6007,917.0696,0.0,0.0,0.2449951171875,0.06781005859375,0.9837646484375,3.30474853515625,-16.934967041015625,-8.32916259765625,528644.6886446886,94695897.43589744,59407252.74725275,79.86944,1.0,1.0,1.0,1.0,1.0,20.0,,0 days 00:00:00
2023-11-09 13:36:33.309,1.1405445,0.97311836,1.4157095,0.96040064,0.7775288,0.43272683,0.77210647,0.63645005,0.78240955,0.3629719,0.5306281,0.42828798,0.34629026,0.15364757,0.43590704,0.610389,0.31617102,-0.2672095,-0.08271622,-0.09923525,806.26373,815.12823,798.60803,809.4872,855.42126,0.0,0.0,0.2449951171875,0.06781005859375,0.9837646484375,3.30474853515625,-16.934967041015625,-8.32916259765625,528644.6886446886,94695897.43589744,59407252.74725275,79.86944,1.0,1.0,1.0,1.0,1.0,20.0,,0 days 00:00:00.001000
2023-11-09 13:36:33.310,1.1405445,0.97311836,1.4157095,0.96040064,0.7775288,0.43272683,0.77210647,0.63645005,0.78240955,0.3629719,0.5306281,0.42828798,0.34629026,0.15364757,0.43590704,0.610389,0.31617102,-0.2672095,-0.08271622,-0.09923525,801.8315,817.1429,801.02563,794.17584,859.85345,0.0,0.0,0.2449951171875,0.06781005859375,0.9837646484375,3.30474853515625,-16.934967041015625,-8.32916259765625,528644.6886446886,94695897.43589744,59407252.74725275,79.86944,1.0,1.0,1.0,1.0,1.0,20.0,,0 days 00:00:00.001000
